UTR-2 one section northern sky survey. Averaged observational data at URAN-2, sections No. 5 and 6 of the southern UTR-2 antenna.

  RA2000(h)      DEC2000(deg)     T25(kK)          T20(kK)        T16.7(kK)       T14.7(kK)      

    0.00	   -15.00	  25.439	   26.432	   49.789	   68.656	  	 
    0.50	   -15.00	  25.652	   26.500	   48.973	   57.178	  	 
    1.00	   -15.00	  26.872	   26.571	   48.046	   52.303	  	 
    1.50	   -15.00	  25.270	   25.585	   48.169	   49.916	  	 
    2.00	   -15.00	  25.754	   25.481	   48.955	   49.126	  	 
    2.50	   -15.00	  24.726	   24.121	   47.734	   46.143	  	 
    3.00	   -15.00	  22.225	   21.466	   44.269	   43.721	  	 
    3.50	   -15.00	  23.111	   21.380	   42.288	   43.833	  	 
    4.00	   -15.00	  22.255	   21.673	   39.213	   41.149	  	 
    4.50	   -15.00	  20.764	   19.944	   37.935	   39.710	   	 
    5.00	   -15.00	  20.993	   20.633	   38.937	   40.769	   	 
    5.50	   -15.00	  24.327	   21.647	   40.459	   41.977	   	 
    6.00	   -15.00	  26.077	   24.395	   46.231	   46.974	  	 
    6.50	   -15.00	  24.943	   27.644	   53.278	   53.767	  	 
    7.00	   -15.00	  25.578	   29.378	   57.168	   58.550	  	 
    7.50	   -15.00	  25.546	   28.325	   54.949	   56.677	  	 
    8.00	   -15.00	  23.286	   23.937	   46.605	   48.363	  	 
    8.50	   -15.00	  19.706	   20.014	   38.811	   40.138	   	 
    9.00	   -15.00	  18.879	   18.318	   33.800	   34.977	   	 
    9.50	   -15.00	  19.459	   18.771	   34.274	   35.341	   	 
   10.00	   -15.00	  19.719	   19.397	   36.068	   37.291	   	 
   10.50	   -15.00	  19.699	   20.716	   38.217	   41.107	   	 
   11.00	   -15.00	  19.977	   22.345	   38.474	   39.363	   	 
   11.50	   -15.00	  20.359	   23.264	   39.647	   40.735	   	 
   12.00	   -15.00	  20.448	   22.602	   42.678	   44.227	   	 
   12.50	   -15.00	  21.265	   24.710	   46.748	   48.029	  	 
   13.00	   -15.00	  21.371	   25.082	   47.882	   49.046	  	 
   13.50	   -15.00	  20.482	   24.457	   46.303	   47.556	  	 
   14.00	   -15.00	  21.265	   25.743	   49.377	   51.039	  	 
   14.50	   -15.00	  22.786	   27.414	   54.993	   56.727	  	 
   15.00	   -15.00	  23.984	   30.478	   61.650	   64.373	  	 
   15.50	   -15.00	  24.936	   33.624	   63.661	   66.562	  	 
   16.00	   -15.00	  25.038	   33.934	   59.763	   79.291	  	 
   16.50	   -15.00	  26.603	   33.841	   65.983	   90.474	  	 
   17.00	   -15.00	  32.443	   41.046	   87.599	  101.979	  	 
   17.50	   -15.00	  38.206	   56.221	  127.568	  164.995	  	 
   18.00	   -15.00	  46.851	   75.012	  157.664	  187.999	  	 
   18.50	   -15.00	  47.046	   75.443	  164.084	  198.492	  	 
   19.00	   -15.00	  45.617	   80.033	  172.628	  185.576	  	 
   19.50	   -15.00	  36.751	   65.225	  138.031	  169.183	  	 
   20.00	   -15.00	  34.777	   61.892	  119.888	  142.289	  	 
   20.50	   -15.00	  30.449	   42.723	   96.517	  123.363	  	 
   21.00	   -15.00	  30.467	   34.403	   71.735	   97.238	  	 
   21.50	   -15.00	  27.395	   31.837	   64.355	   98.595	  	 
   22.00	   -15.00	  27.371	   29.453	   64.286	   89.831	  	 
   22.50	   -15.00	  26.593	   28.035	   61.421	   98.187	  	 
   23.00	   -15.00	  25.334	   25.569	   52.811	   81.734	  	 
   23.50	   -15.00	  26.388	   27.721	   53.082	   75.447	  	 
    0.00	   -13.00	  23.216	   25.611	   48.788	   64.190	  	 
    0.50	   -13.00	  22.703	   25.513	   48.753	   55.578	  	 
    1.00	   -13.00	  24.620	   26.191	   47.190	   50.936	  	 
    1.50	   -13.00	  24.276	   25.350	   46.487	   50.470	  	 
    2.00	   -13.00	  25.343	   26.152	   48.079	   48.833	  	 
    2.50	   -13.00	  23.630	   24.307	   46.604	   46.427	  	 
    3.00	   -13.00	  21.702	   21.701	   43.241	   44.120	  	 
    3.50	   -13.00	  21.520	   21.747	   42.767	   45.126	  	 
    4.00	   -13.00	  20.681	   21.662	   40.522	   42.041	  	 
    4.50	   -13.00	  19.823	   20.703	   38.338	   40.855	   	 
    5.00	   -13.00	  21.130	   20.926	   39.536	   41.791	   	 
    5.50	   -13.00	  22.365	   22.171	   41.548	   43.043	   	 
    6.00	   -13.00	  24.871	   25.121	   46.876	   48.072	  	 
    6.50	   -13.00	  24.300	   28.568	   54.290	   55.922	  	 
    7.00	   -13.00	  24.573	   30.502	   58.956	   60.412	  	 
    7.50	   -13.00	  23.914	   29.175	   54.806	   57.180	  	 
    8.00	   -13.00	  21.727	   24.170	   46.753	   48.472	  	 
    8.50	   -13.00	  19.120	   20.166	   38.495	   40.219	   	 
    9.00	   -13.00	  18.173	   18.140	   33.612	   35.030	   	 
    9.50	   -13.00	  18.979	   19.000	   34.383	   35.571	   	 
   10.00	   -13.00	  19.393	   19.729	   35.879	   37.481	   	 
   10.50	   -13.00	  19.611	   20.774	   38.422	   41.084	   	 
   11.00	   -13.00	  19.967	   22.792	   40.128	   40.670	   	 
   11.50	   -13.00	  20.216	   23.609	   40.931	   42.332	   	 
   12.00	   -13.00	  21.159	   23.540	   43.688	   45.716	   	 
   12.50	   -13.00	  21.915	   25.452	   47.702	   49.984	  	 
   13.00	   -13.00	  22.250	   25.459	   48.632	   50.560	  	 
   13.50	   -13.00	  20.642	   24.848	   46.882	   48.752	  	 
   14.00	   -13.00	  21.495	   25.958	   49.988	   52.197	  	 
   14.50	   -13.00	  23.019	   28.202	   55.537	   58.034	  	 
   15.00	   -13.00	  23.937	   31.190	   63.690	   66.359	  	 
   15.50	   -13.00	  24.903	   33.952	   65.983	   68.339	  	 
   16.00	   -13.00	  24.474	   34.874	   63.106	   80.728	  	 
   16.50	   -13.00	  26.026	   34.163	   65.757	   84.669	  	 
   17.00	   -13.00	  31.121	   41.654	   89.240	   97.901	  	 
   17.50	   -13.00	  36.085	   57.052	  130.909	  163.265	  	 
   18.00	   -13.00	  45.004	   76.164	  164.308	  188.834	  	 
   18.50	   -13.00	  46.482	   77.966	  171.128	  201.401	  	 
   19.00	   -13.00	  46.569	   84.123	  177.806	  190.194	  	 
   19.50	   -13.00	  36.805	   66.410	  141.735	  163.901	  	 
   20.00	   -13.00	  34.742	   60.695	  122.610	  139.817	  	 
   20.50	   -13.00	  29.476	   44.487	   98.919	  128.149	  	 
   21.00	   -13.00	  29.766	   36.088	   72.951	   98.433	  	 
   21.50	   -13.00	  26.807	   32.970	   63.720	   98.952	  	 
   22.00	   -13.00	  27.086	   30.182	   63.197	   90.508	  	 
   22.50	   -13.00	  25.363	   27.387	   60.095	   94.207	  	 
   23.00	   -13.00	  23.893	   25.951	   51.306	   77.886	  	 
   23.50	   -13.00	  25.113	   27.164	   52.571	   70.368	  	 
    0.00	   -11.00	  22.761	   25.040	   47.732	   58.942	  	 
    0.50	   -11.00	  22.015	   25.272	   47.277	   53.484	  	 
    1.00	   -11.00	  23.601	   25.396	   46.906	   49.885	  	 
    1.50	   -11.00	  23.003	   25.262	   47.159	   50.386	  	 
    2.00	   -11.00	  23.265	   26.222	   48.286	   49.107	  	 
    2.50	   -11.00	  22.260	   24.892	   47.342	   46.916	  	 
    3.00	   -11.00	  21.310	   22.624	   44.035	   45.318	  	 
    3.50	   -11.00	  20.795	   22.468	   43.927	   48.105	  	 
    4.00	   -11.00	  19.843	   22.402	   42.066	   44.155	  	 
    4.50	   -11.00	  21.126	   21.512	   39.783	   43.706	  	 
    5.00	   -11.00	  21.602	   21.771	   41.263	   44.418	   	 
    5.50	   -11.00	  21.895	   23.409	   42.949	   45.646	   	 
    6.00	   -11.00	  24.009	   26.448	   47.963	   50.519	  	 
    6.50	   -11.00	  23.912	   30.457	   57.368	   59.962	  	 
    7.00	   -11.00	  24.548	   32.132	   61.775	   63.041	  	 
    7.50	   -11.00	  23.610	   30.097	   55.568	   58.255	  	 
    8.00	   -11.00	  20.211	   24.744	   46.728	   48.746	  	 
    8.50	   -11.00	  17.955	   20.365	   38.672	   40.643	   	 
    9.00	   -11.00	  17.315	   18.415	   33.554	   35.775	   	 
    9.50	   -11.00	  18.308	   19.187	   34.544	   36.558	   	 
   10.00	   -11.00	  18.520	   19.863	   35.830	   37.620	   	 
   10.50	   -11.00	  19.292	   21.149	   38.592	   41.929	   	 
   11.00	   -11.00	  19.497	   23.115	   41.537	   42.892	   	 
   11.50	   -11.00	  20.178	   25.192	   43.234	   44.436	   	 
   12.00	   -11.00	  21.627	   24.545	   45.292	   47.488	   	 
   12.50	   -11.00	  22.450	   26.673	   50.189	   51.971	  	 
   13.00	   -11.00	  22.110	   26.537	   50.116	   52.188	  	 
   13.50	   -11.00	  20.795	   25.698	   48.014	   50.463	  	 
   14.00	   -11.00	  21.803	   27.085	   51.563	   53.644	  	 
   14.50	   -11.00	  23.249	   29.043	   57.300	   59.740	  	 
   15.00	   -11.00	  23.889	   32.205	   65.529	   68.212	  	 
   15.50	   -11.00	  24.449	   34.220	   68.555	   70.264	  	 
   16.00	   -11.00	  24.048	   35.409	   66.392	   79.270	  	 
   16.50	   -11.00	  26.177	   35.122	   67.073	   81.648	  	 
   17.00	   -11.00	  28.494	   42.893	   90.286	  103.610	  	 
   17.50	   -11.00	  33.919	   59.519	  131.034	  164.425	  	 
   18.00	   -11.00	  44.223	   79.835	  171.386	  201.217	  	 
   18.50	   -11.00	  49.172	   83.923	  178.287	  201.050	  	 
   19.00	   -11.00	  49.405	   89.144	  182.367	  193.493	  	 
   19.50	   -11.00	  37.860	   69.580	  149.301	  178.649	  	 
   20.00	   -11.00	  34.355	   60.859	  135.094	  155.632	  	 
   20.50	   -11.00	  29.699	   45.992	  104.153	  134.835	  	 
   21.00	   -11.00	  30.446	   38.344	   72.363	  101.254	  	 
   21.50	   -11.00	  28.345	   35.123	   66.674	   95.721	  	 
   22.00	   -11.00	  25.117	   31.086	   64.434	   85.776	  	 
   22.50	   -11.00	  24.594	   28.023	   57.704	   88.715	  	 
   23.00	   -11.00	  23.469	   26.534	   51.778	   73.010	  	 
   23.50	   -11.00	  23.707	   26.586	   52.783	   66.325	  	 
    0.00	    -9.00	  20.789	   24.888	   46.936	   54.978	  	 
    0.50	    -9.00	  20.093	   25.141	   47.430	   52.503	  	 
    1.00	    -9.00	  21.565	   25.649	   47.645	   50.912	  	 
    1.50	    -9.00	  21.226	   25.911	   47.893	   51.507	  	 
    2.00	    -9.00	  21.834	   26.349	   48.987	   50.804	  	 
    2.50	    -9.00	  20.037	   25.620	   50.261	   49.468	  	 
    3.00	    -9.00	  19.300	   24.146	   46.597	   48.513	  	 
    3.50	    -9.00	  19.302	   23.895	   45.020	   50.288	  	 
    4.00	    -9.00	  19.058	   23.057	   42.812	   46.358	  	 
    4.50	    -9.00	  20.811	   22.790	   41.334	   45.812	  	 
    5.00	    -9.00	  21.107	   23.105	   42.894	   47.174	   	 
    5.50	    -9.00	  21.627	   24.577	   44.842	   48.103	   	 
    6.00	    -9.00	  23.421	   27.812	   49.867	   52.796	  	 
    6.50	    -9.00	  24.806	   32.244	   61.085	   63.072	  	 
    7.00	    -9.00	  24.992	   33.604	   64.643	   65.841	  	 
    7.50	    -9.00	  23.625	   30.693	   56.531	   60.103	  	 
    8.00	    -9.00	  20.342	   25.188	   46.889	   49.921	  	 
    8.50	    -9.00	  17.904	   20.691	   38.660	   41.221	   	 
    9.00	    -9.00	  17.360	   18.439	   33.276	   36.020	   	 
    9.50	    -9.00	  18.177	   19.382	   34.363	   36.858	   	 
   10.00	    -9.00	  18.680	   19.967	   35.082	   37.954	   	 
   10.50	    -9.00	  19.657	   21.109	   38.159	   42.506	   	 
   11.00	    -9.00	  19.691	   22.935	   41.286	   43.420	   	 
   11.50	    -9.00	  20.457	   25.185	   43.723	   45.674	  	 
   12.00	    -9.00	  21.810	   25.330	   46.101	   48.390	  	 
   12.50	    -9.00	  22.934	   28.038	   52.485	   54.164	  	 
   13.00	    -9.00	  22.556	   27.448	   51.817	   53.520	  	 
   13.50	    -9.00	  21.472	   26.562	   49.799	   51.728	  	 
   14.00	    -9.00	  22.224	   27.728	   52.775	   54.224	  	 
   14.50	    -9.00	  23.267	   29.972	   58.224	   60.191	  	 
   15.00	    -9.00	  24.101	   32.532	   65.723	   67.846	  	 
   15.50	    -9.00	  24.034	   34.038	   69.297	   69.801	  	 
   16.00	    -9.00	  24.919	   36.094	   68.941	   74.927	  	 
   16.50	    -9.00	  25.961	   35.946	   68.664	   78.759	  	 
   17.00	    -9.00	  28.090	   44.561	   90.731	  116.351	  	 
   17.50	    -9.00	  33.585	   61.538	  130.423	  168.780	  	 
   18.00	    -9.00	  44.356	   83.059	  173.379	  204.840	  	 
   18.50	    -9.00	  51.217	   89.710	  178.048	  198.187	  	 
   19.00	    -9.00	  50.997	   94.644	  183.627	  194.139	  	 
   19.50	    -9.00	  40.479	   73.100	  154.514	  180.045	  	 
   20.00	    -9.00	  33.717	   60.569	  136.043	  158.221	  	 
   20.50	    -9.00	  28.414	   47.384	  104.719	  131.052	  	 
   21.00	    -9.00	  29.243	   38.931	   75.912	  103.284	  	 
   21.50	    -9.00	  27.027	   37.020	   70.485	   93.821	  	 
   22.00	    -9.00	  23.058	   32.218	   65.244	   80.906	  	 
   22.50	    -9.00	  22.559	   28.885	   57.028	   86.864	  	 
   23.00	    -9.00	  22.403	   27.833	   52.175	   71.771	  	 
   23.50	    -9.00	  21.763	   26.668	   51.523	   59.603	  	 
    0.00	    -7.00	  19.263	   24.994	   47.145	   52.060	  	 
    0.50	    -7.00	  18.927	   25.428	   47.258	   51.949	  	 
    1.00	    -7.00	  20.505	   26.389	   48.179	   51.630	  	 
    1.50	    -7.00	  20.176	   26.817	   48.925	   52.228	  	 
    2.00	    -7.00	  20.486	   26.848	   49.790	   52.591	  	 
    2.50	    -7.00	  19.251	   26.123	   53.550	   51.865	  	 
    3.00	    -7.00	  18.215	   25.132	   49.842	   51.680	  	 
    3.50	    -7.00	  18.475	   24.801	   46.015	   51.155	  	 
    4.00	    -7.00	  17.899	   23.482	   42.701	   47.634	  	 
    4.50	    -7.00	  18.719	   23.581	   41.764	   47.944	  	 
    5.00	    -7.00	  19.004	   24.268	   43.826	   49.277	  	 
    5.50	    -7.00	  20.620	   25.770	   46.793	   50.235	  	 
    6.00	    -7.00	  22.476	   28.625	   50.829	   54.499	  	 
    6.50	    -7.00	  23.995	   33.759	   62.978	   65.497	  	 
    7.00	    -7.00	  23.830	   34.395	   65.561	   67.855	  	 
    7.50	    -7.00	  21.728	   30.788	   56.663	   61.714	  	 
    8.00	    -7.00	  19.288	   25.312	   46.405	   50.656	  	 
    8.50	    -7.00	  16.946	   20.700	   38.023	   41.505	  	 
    9.00	    -7.00	  16.104	   18.316	   32.714	   36.150	  	 
    9.50	    -7.00	  16.736	   19.406	   33.702	   37.189	  	 
   10.00	    -7.00	  17.461	   19.917	   34.459	   38.219	  	 
   10.50	    -7.00	  18.031	   21.063	   37.317	   42.110	  	 
   11.00	    -7.00	  18.670	   22.321	   40.233	   43.194	  	 
   11.50	    -7.00	  20.092	   24.477	   43.410	   46.189	  	 
   12.00	    -7.00	  21.417	   25.281	   46.394	   49.118	  	 
   12.50	    -7.00	  23.236	   29.251	   54.502	   56.103	  	 
   13.00	    -7.00	  22.365	   28.470	   52.769	   54.567	  	 
   13.50	    -7.00	  21.591	   26.920	   50.197	   52.850	  	 
   14.00	    -7.00	  22.015	   27.876	   53.019	   54.837	  	 
   14.50	    -7.00	  22.449	   30.412	   57.999	   60.752	  	 
   15.00	    -7.00	  23.013	   32.975	   64.825	   67.601	  	 
   15.50	    -7.00	  22.681	   33.846	   68.609	   69.618	  	 
   16.00	    -7.00	  23.615	   36.286	   71.161	   71.645	  	 
   16.50	    -7.00	  24.273	   36.692	   70.172	   76.567	  	 
   17.00	    -7.00	  27.192	   45.475	   89.928	  124.847	  	 
   17.50	    -7.00	  33.031	   62.839	  128.402	  169.481	  	 
   18.00	    -7.00	  44.747	   85.843	  172.883	  204.998	  	 
   18.50	    -7.00	  53.300	   96.109	  177.020	  196.832	  	 
   19.00	    -7.00	  52.812	   97.936	  179.969	  192.196	  	 
   19.50	    -7.00	  39.560	   74.706	  157.472	  176.576	  	 
   20.00	    -7.00	  31.913	   60.302	  134.838	  151.558	  	 
   20.50	    -7.00	  27.076	   47.338	  104.581	  123.156	  	 
   21.00	    -7.00	  29.133	   41.084	   78.169	   99.404	  	 
   21.50	    -7.00	  26.989	   37.290	   72.683	   89.955	  	 
   22.00	    -7.00	  22.508	   33.112	   65.538	   77.407	  	 
   22.50	    -7.00	  21.602	   29.332	   56.776	   83.332	  	 
   23.00	    -7.00	  20.336	   28.830	   52.202	   70.454	  	 
   23.50	    -7.00	  20.255	   27.057	   51.017	   57.587	  	 
    0.00	    -5.00	  19.260	   25.995	   47.953	   51.827	  	 
    0.50	    -5.00	  18.992	   26.432	   48.394	   52.820	  	 
    1.00	    -5.00	  20.112	   27.647	   48.557	   52.305	  	 
    1.50	    -5.00	  19.985	   28.177	   49.954	   53.728	  	 
    2.00	    -5.00	  20.551	   28.121	   51.399	   54.792	  	 
    2.50	    -5.00	  19.486	   27.257	   55.217	   55.676	  	 
    3.00	    -5.00	  18.585	   25.925	   51.374	   53.564	  	 
    3.50	    -5.00	  17.946	   25.305	   46.482	   52.928	  	 
    4.00	    -5.00	  17.745	   24.092	   42.998	   48.401	  	 
    4.50	    -5.00	  18.276	   24.405	   42.664	   48.749	  	 
    5.00	    -5.00	  18.965	   25.372	   45.490	   50.595	  	 
    5.50	    -5.00	  20.178	   27.023	   48.204	   52.253	  	 
    6.00	    -5.00	  21.420	   29.671	   52.195	   56.679	  	 
    6.50	    -5.00	  23.738	   35.024	   65.334	   68.772	  	 
    7.00	    -5.00	  23.770	   35.394	   66.299	   70.040	  	 
    7.50	    -5.00	  21.035	   30.514	   56.271	   62.469	  	 
    8.00	    -5.00	  18.715	   25.074	   46.094	   51.029	  	 
    8.50	    -5.00	  16.450	   20.949	   37.485	   41.888	  	 
    9.00	    -5.00	  15.461	   18.191	   32.292	   36.193	  	 
    9.50	    -5.00	  16.007	   19.295	   33.173	   37.209	  	 
   10.00	    -5.00	  16.948	   19.658	   33.984	   38.318	  	 
   10.50	    -5.00	  17.793	   20.673	   36.806	   41.496	  	 
   11.00	    -5.00	  18.183	   21.776	   39.557	   42.986	  	 
   11.50	    -5.00	  19.540	   23.863	   42.855	   46.850	  	 
   12.00	    -5.00	  20.884	   25.320	   46.231	   49.527	  	 
   12.50	    -5.00	  23.735	   30.348	   55.476	   58.118	  	 
   13.00	    -5.00	  22.708	   29.129	   53.472	   56.545	  	 
   13.50	    -5.00	  21.510	   27.297	   50.394	   54.114	  	 
   14.00	    -5.00	  22.021	   28.365	   52.641	   55.729	  	 
   14.50	    -5.00	  22.788	   30.839	   57.855	   61.449	  	 
   15.00	    -5.00	  23.243	   33.282	   64.391	   68.308	  	 
   15.50	    -5.00	  23.260	   33.763	   67.956	   70.418	  	 
   16.00	    -5.00	  23.349	   36.506	   72.352	   71.058	  	 
   16.50	    -5.00	  23.821	   37.954	   73.179	   77.363	  	 
   17.00	    -5.00	  26.992	   46.275	   91.884	  125.377	  	 
   17.50	    -5.00	  32.793	   62.939	  126.860	  163.284	  	 
   18.00	    -5.00	  43.951	   87.405	  169.977	  201.809	  	 
   18.50	    -5.00	  53.444	  100.138	  176.575	  193.756	  	 
   19.00	    -5.00	  53.781	   97.955	  175.557	  188.211	  	 
   19.50	    -5.00	  39.954	   77.051	  157.014	  178.002	  	 
   20.00	    -5.00	  32.478	   59.446	  133.976	  149.021	  	 
   20.50	    -5.00	  28.203	   47.604	  103.082	  119.179	  	 
   21.00	    -5.00	  29.912	   42.753	   81.052	   97.812	  	 
   21.50	    -5.00	  25.951	   38.773	   74.069	   89.123	  	 
   22.00	    -5.00	  22.324	   33.253	   66.122	   74.434	  	 
   22.50	    -5.00	  21.059	   29.373	   56.835	   78.667	  	 
   23.00	    -5.00	  20.663	   29.233	   53.301	   70.467	  	 
   23.50	    -5.00	  20.318	   27.946	   51.251	   59.660	  	 
    0.00	    -3.00	  19.278	   27.508	   49.954	   57.029	  	 
    0.50	    -3.00	  19.008	   27.987	   49.918	   55.921	  	 
    1.00	    -3.00	  19.594	   29.233	   49.066	   53.812	  	 
    1.50	    -3.00	  19.846	   29.784	   50.257	   55.093	  	 
    2.00	    -3.00	  20.381	   29.815	   52.603	   58.238	  	 
    2.50	    -3.00	  19.460	   28.762	   55.869	   58.859	  	 
    3.00	    -3.00	  19.066	   26.869	   51.414	   55.918	  	 
    3.50	    -3.00	  18.178	   25.785	   46.494	   53.876	  	 
    4.00	    -3.00	  18.142	   25.043	   43.337	   48.375	  	 
    4.50	    -3.00	  18.565	   25.356	   44.072	   49.526	  	 
    5.00	    -3.00	  19.521	   26.679	   47.258	   52.384	  	 
    5.50	    -3.00	  20.731	   28.984	   49.495	   54.899	  	 
    6.00	    -3.00	  21.224	   30.810	   54.316	   58.512	  	 
    6.50	    -3.00	  24.027	   36.931	   66.856	   71.646	  	 
    7.00	    -3.00	  24.042	   36.239	   66.082	   71.699	  	 
    7.50	    -3.00	  21.123	   30.532	   55.690	   63.073	  	 
    8.00	    -3.00	  18.639	   25.538	   46.113	   50.680	  	 
    8.50	    -3.00	  16.618	   21.524	   37.681	   42.428	  	 
    9.00	    -3.00	  15.693	   18.288	   32.224	   36.737	  	 
    9.50	    -3.00	  16.101	   19.057	   32.739	   37.620	  	 
   10.00	    -3.00	  16.807	   19.742	   33.843	   38.198	  	 
   10.50	    -3.00	  17.459	   20.772	   36.518	   41.442	  	 
   11.00	    -3.00	  18.026	   21.683	   39.161	   43.592	  	 
   11.50	    -3.00	  19.384	   23.921	   42.564	   48.192	  	 
   12.00	    -3.00	  20.786	   25.581	   46.474	   50.118	  	 
   12.50	    -3.00	  23.936	   32.135	   57.085	   60.526	  	 
   13.00	    -3.00	  23.032	   30.666	   54.975	   59.389	  	 
   13.50	    -3.00	  21.826	   28.241	   50.798	   56.513	  	 
   14.00	    -3.00	  22.045	   28.990	   52.752	   57.297	  	 
   14.50	    -3.00	  22.699	   31.429	   57.955	   62.970	  	 
   15.00	    -3.00	  23.581	   34.161	   64.523	   69.591	  	 
   15.50	    -3.00	  23.007	   34.719	   68.472	   72.876	  	 
   16.00	    -3.00	  23.426	   37.602	   75.772	   75.526	  	 
   16.50	    -3.00	  24.243	   40.283	   77.421	   80.789	  	 
   17.00	    -3.00	  27.698	   49.004	   95.569	  121.670	  	 
   17.50	    -3.00	  31.999	   63.658	  125.444	  158.340	  	 
   18.00	    -3.00	  43.754	   88.500	  166.603	  196.032	  	 
   18.50	    -3.00	  54.944	  101.941	  177.002	  192.158	  	 
   19.00	    -3.00	  55.448	   98.609	  172.469	  189.509	  	 
   19.50	    -3.00	  41.777	   80.363	  158.071	  185.476	  	 
   20.00	    -3.00	  33.670	   62.423	  131.685	  150.157	  	 
   20.50	    -3.00	  27.988	   48.727	  101.399	  113.499	  	 
   21.00	    -3.00	  28.403	   45.016	   80.826	  100.269	  	 
   21.50	    -3.00	  24.962	   39.690	   72.278	   89.941	  	 
   22.00	    -3.00	  22.076	   32.959	   63.958	   72.278	  	 
   22.50	    -3.00	  20.439	   29.727	   56.413	   72.050	  	 
   23.00	    -3.00	  20.895	   29.711	   53.356	   69.640	  	 
   23.50	    -3.00	  20.444	   28.947	   51.889	   64.832	  	 
    0.00	    -1.00	  19.919	   29.162	   51.467	   61.400	  	 
    0.50	    -1.00	  19.138	   29.384	   50.818	   58.819	  	 
    1.00	    -1.00	  18.817	   30.400	   49.228	   55.682	  	 
    1.50	    -1.00	  19.652	   30.354	   49.986	   58.124	  	 
    2.00	    -1.00	  20.550	   30.707	   52.911	   60.970	  	 
    2.50	    -1.00	  19.836	   30.017	   55.642	   61.061	  	 
    3.00	    -1.00	  19.156	   28.200	   51.600	   58.490	  	 
    3.50	    -1.00	  18.256	   26.622	   46.226	   55.448	  	 
    4.00	    -1.00	  18.324	   25.665	   43.854	   49.414	  	 
    4.50	    -1.00	  18.596	   26.142	   45.267	   51.266	  	 
    5.00	    -1.00	  19.727	   28.049	   48.659	   54.456	  	 
    5.50	    -1.00	  20.994	   30.797	   51.480	   57.846	  	 
    6.00	    -1.00	  21.503	   32.443	   55.954	   61.865	  	 
    6.50	    -1.00	  24.569	   38.519	   68.216	   74.469	  	 
    7.00	    -1.00	  24.077	   36.955	   65.814	   72.741	  	 
    7.50	    -1.00	  20.706	   30.544	   54.943	   62.773	  	 
    8.00	    -1.00	  18.429	   25.721	   45.467	   49.808	  	 
    8.50	    -1.00	  16.503	   21.846	   37.870	   42.652	  	 
    9.00	    -1.00	  15.570	   18.332	   32.108	   37.076	  	 
    9.50	    -1.00	  16.058	   18.892	   32.420	   38.135	  	 
   10.00	    -1.00	  16.573	   19.757	   33.738	   38.059	  	 
   10.50	    -1.00	  16.845	   20.895	   36.182	   41.230	  	 
   11.00	    -1.00	  17.852	   21.877	   38.986	   44.186	  	 
   11.50	    -1.00	  19.341	   23.981	   42.150	   49.029	  	 
   12.00	    -1.00	  20.660	   25.485	   45.561	   50.243	  	 
   12.50	    -1.00	  24.330	   33.284	   58.195	   62.754	  	 
   13.00	    -1.00	  23.542	   31.897	   56.611	   62.098	  	 
   13.50	    -1.00	  21.894	   29.224	   51.775	   58.670	  	 
   14.00	    -1.00	  22.074	   29.394	   52.687	   58.388	  	 
   14.50	    -1.00	  23.002	   32.071	   58.338	   64.398	  	 
   15.00	    -1.00	  24.057	   35.260	   65.476	   71.652	  	 
   15.50	    -1.00	  23.550	   36.121	   69.341	   76.956	  	 
   16.00	    -1.00	  24.574	   39.307	   76.620	   81.845	  	 
   16.50	    -1.00	  25.512	   42.451	   80.203	   86.461	  	 
   17.00	    -1.00	  28.842	   52.018	   98.798	  117.092	  	 
   17.50	    -1.00	  32.317	   64.758	  124.387	  149.860	  	 
   18.00	    -1.00	  42.757	   87.944	  160.892	  185.544	  	 
   18.50	    -1.00	  56.096	  102.721	  177.100	  190.694	  	 
   19.00	    -1.00	  56.283	   98.918	  170.460	  189.222	  	 
   19.50	    -1.00	  44.018	   84.175	  157.458	  190.769	  	 
   20.00	    -1.00	  34.918	   64.712	  129.157	  151.694	  	 
   20.50	    -1.00	  28.463	   49.321	  100.205	  114.875	  	 
   21.00	    -1.00	  27.798	   46.658	   79.373	   98.461	  	 
   21.50	    -1.00	  25.795	   41.143	   72.208	   89.603	  	 
   22.00	    -1.00	  21.610	   33.100	   61.535	   69.839	  	 
   22.50	    -1.00	  20.499	   29.804	   55.374	   65.283	  	 
   23.00	    -1.00	  21.393	   29.922	   52.866	   68.644	  	 
   23.50	    -1.00	  21.051	   29.943	   51.615	   67.892	  	 
    0.00	     1.00	  19.714	   29.226	   51.599	   62.362	  	 
    0.50	     1.00	  18.581	   29.681	   50.656	   59.791	  	 
    1.00	     1.00	  18.647	   30.454	   49.277	   57.048	  	 
    1.50	     1.00	  19.468	   30.752	   49.795	   59.077	  	 
    2.00	     1.00	  20.210	   30.925	   53.132	   61.999	  	 
    2.50	     1.00	  19.325	   30.359	   55.179	   63.153	  	 
    3.00	     1.00	  18.456	   29.189	   51.706	   61.306	  	 
    3.50	     1.00	  17.733	   27.706	   46.542	   56.505	  	 
    4.00	     1.00	  17.889	   26.396	   44.872	   51.138	  	 
    4.50	     1.00	  18.158	   26.829	   45.933	   53.646	  	 
    5.00	     1.00	  19.071	   29.538	   50.212	   57.544	  	 
    5.50	     1.00	  21.052	   32.609	   52.879	   60.562	  	 
    6.00	     1.00	  21.932	   34.473	   57.569	   65.770	  	 
    6.50	     1.00	  24.560	   39.286	   68.000	   75.560	  	 
    7.00	     1.00	  23.640	   37.132	   64.406	   73.286	  	 
    7.50	     1.00	  20.185	   30.307	   53.992	   62.432	  	 
    8.00	     1.00	  17.930	   25.274	   44.987	   49.694	  	 
    8.50	     1.00	  16.000	   21.825	   38.341	   43.115	  	 
    9.00	     1.00	  15.267	   18.186	   31.875	   37.334	  	 
    9.50	     1.00	  15.881	   18.636	   32.215	   38.290	  	 
   10.00	     1.00	  16.374	   19.313	   33.755	   38.012	  	 
   10.50	     1.00	  16.494	   20.620	   35.732	   41.190	  	 
   11.00	     1.00	  17.970	   21.617	   38.556	   44.800	  	 
   11.50	     1.00	  19.618	   23.493	   41.638	   49.025	  	 
   12.00	     1.00	  20.226	   24.776	   44.440	   50.247	  	 
   12.50	     1.00	  23.970	   33.307	   58.151	   64.244	  	 
   13.00	     1.00	  23.629	   32.726	   57.645	   64.328	  	 
   13.50	     1.00	  22.101	   29.978	   53.118	   60.393	  	 
   14.00	     1.00	  22.208	   29.630	   53.382	   59.595	  	 
   14.50	     1.00	  23.062	   32.476	   58.721	   65.870	  	 
   15.00	     1.00	  24.018	   36.476	   65.750	   74.697	  	 
   15.50	     1.00	  23.911	   37.613	   70.559	   81.305	  	 
   16.00	     1.00	  24.996	   40.539	   76.845	   87.420	  	 
   16.50	     1.00	  25.652	   44.546	   83.711	   94.174	  	 
   17.00	     1.00	  28.726	   54.748	  100.624	  118.180	  	 
   17.50	     1.00	  33.104	   67.269	  124.223	  148.231	  	 
   18.00	     1.00	  42.218	   86.151	  154.627	  181.123	  	 
   18.50	     1.00	  53.833	  103.135	  171.767	  194.039	  	 
   19.00	     1.00	  54.369	  101.619	  168.347	  189.316	  	 
   19.50	     1.00	  45.179	   89.404	  157.966	  192.237	  	 
   20.00	     1.00	  35.937	   66.840	  125.342	  149.545	  	 
   20.50	     1.00	  28.345	   49.974	   97.164	  114.326	  	 
   21.00	     1.00	  28.000	   46.850	   78.326	   97.325	  	 
   21.50	     1.00	  25.374	   40.262	   69.602	   88.484	  	 
   22.00	     1.00	  21.224	   32.230	   58.393	   68.123	  	 
   22.50	     1.00	  20.434	   29.916	   54.741	   63.273	  	 
   23.00	     1.00	  20.485	   29.941	   52.252	   67.870	  	 
   23.50	     1.00	  20.549	   29.930	   51.085	   67.401	  	 
    0.00	     3.00	  19.281	   27.983	   48.963	   59.297	  	 
    0.50	     3.00	  18.967	   29.426	   49.289	   58.798	  	 
    1.00	     3.00	  18.263	   30.113	   48.663	   58.490	  	 
    1.50	     3.00	  19.316	   29.990	   49.602	   59.848	  	 
    2.00	     3.00	  19.784	   30.341	   53.184	   62.971	  	 
    2.50	     3.00	  18.960	   29.994	   54.868	   65.038	  	 
    3.00	     3.00	  18.469	   29.627	   51.837	   63.866	  	 
    3.50	     3.00	  17.488	   27.735	   47.418	   58.006	  	 
    4.00	     3.00	  17.960	   26.793	   45.856	   52.711	  	 
    4.50	     3.00	  18.782	   27.391	   47.059	   56.166	  	 
    5.00	     3.00	  19.470	   30.363	   52.176	   60.621	  	 
    5.50	     3.00	  21.585	   33.542	   54.098	   62.541	  	 
    6.00	     3.00	  22.267	   36.352	   60.265	   70.549	  	 
    6.50	     3.00	  24.574	   39.846	   67.327	   77.344	  	 
    7.00	     3.00	  23.378	   36.785	   63.436	   73.930	  	 
    7.50	     3.00	  19.704	   29.611	   52.727	   62.642	  	 
    8.00	     3.00	  17.264	   24.440	   44.280	   50.418	  	 
    8.50	     3.00	  15.789	   21.678	   38.731	   43.755	  	 
    9.00	     3.00	  15.118	   17.506	   31.693	   37.450	  	 
    9.50	     3.00	  15.766	   18.019	   32.145	   38.051	  	 
   10.00	     3.00	  16.183	   18.424	   33.552	   38.105	  	 
   10.50	     3.00	  16.637	   19.763	   35.251	   41.254	  	 
   11.00	     3.00	  18.292	   21.205	   37.922	   45.331	  	 
   11.50	     3.00	  20.087	   22.690	   41.106	   49.016	  	 
   12.00	     3.00	  19.983	   23.654	   43.658	   50.381	  	 
   12.50	     3.00	  23.602	   31.883	   56.926	   65.267	  	 
   13.00	     3.00	  24.193	   32.945	   58.023	   66.499	  	 
   13.50	     3.00	  22.803	   30.293	   54.206	   62.514	  	 
   14.00	     3.00	  22.163	   29.601	   54.311	   61.517	  	 
   14.50	     3.00	  23.202	   32.723	   59.012	   67.367	  	 
   15.00	     3.00	  24.323	   37.214	   66.621	   79.139	  	 
   15.50	     3.00	  24.342	   39.069	   72.240	   87.056	  	 
   16.00	     3.00	  25.243	   42.096	   79.318	   93.482	  	 
   16.50	     3.00	  26.337	   47.100	   87.320	  102.424	  	 
   17.00	     3.00	  29.134	   58.240	  102.991	  124.463	  	 
   17.50	     3.00	  33.712	   70.629	  123.866	  149.438	  	 
   18.00	     3.00	  40.407	   84.395	  146.653	  175.621	  	 
   18.50	     3.00	  49.009	  100.810	  163.170	  199.423	  	 
   19.00	     3.00	  53.635	  104.571	  170.876	  192.268	  	 
   19.50	     3.00	  46.674	   95.865	  161.185	  193.669	  	 
   20.00	     3.00	  35.035	   68.935	  123.321	  147.960	  	 
   20.50	     3.00	  28.834	   50.073	   93.814	  111.998	  	 
   21.00	     3.00	  27.498	   46.054	   76.317	   94.134	  	 
   21.50	     3.00	  25.365	   38.883	   67.899	   85.115	  	 
   22.00	     3.00	  20.034	   30.708	   55.707	   67.403	  	 
   22.50	     3.00	  20.004	   30.488	   53.996	   64.929	  	 
   23.00	     3.00	  19.950	   30.033	   51.514	   66.459	  	 
   23.50	     3.00	  19.790	   29.338	   49.709	   63.196	  	 
    0.00	     5.00	  19.204	   27.210	   47.298	   57.811	  	 
    0.50	     5.00	  19.117	   28.864	   48.182	   58.108	  	 
    1.00	     5.00	  18.258	   29.228	   47.850	   58.905	  	 
    1.50	     5.00	  19.309	   29.498	   49.180	   60.243	  	 
    2.00	     5.00	  19.754	   30.359	   52.464	   63.732	  	 
    2.50	     5.00	  19.173	   30.127	   54.872	   66.699	  	 
    3.00	     5.00	  19.070	   29.655	   51.885	   66.464	  	 
    3.50	     5.00	  17.305	   27.868	   47.788	   59.800	  	 
    4.00	     5.00	  17.561	   27.756	   47.080	   54.804	  	 
    4.50	     5.00	  18.522	   28.322	   48.688	   58.744	  	 
    5.00	     5.00	  19.820	   31.065	   53.934	   63.645	  	 
    5.50	     5.00	  22.177	   33.984	   55.622	   64.464	  	 
    6.00	     5.00	  22.713	   37.929	   62.777	   74.704	  	 
    6.50	     5.00	  24.794	   40.317	   67.063	   79.464	  	 
    7.00	     5.00	  23.595	   36.693	   62.339	   74.814	  	 
    7.50	     5.00	  19.695	   28.998	   52.632	   63.113	  	 
    8.00	     5.00	  17.295	   23.755	   43.665	   51.527	  	 
    8.50	     5.00	  15.868	   20.727	   38.376	   44.307	  	 
    9.00	     5.00	  14.861	   17.118	   31.734	   37.711	  	 
    9.50	     5.00	  15.541	   17.897	   32.293	   38.072	  	 
   10.00	     5.00	  15.988	   18.043	   33.478	   38.654	  	 
   10.50	     5.00	  16.455	   19.345	   35.116	   41.750	  	 
   11.00	     5.00	  18.298	   21.098	   37.753	   46.087	  	 
   11.50	     5.00	  20.920	   22.301	   40.919	   49.386	  	 
   12.00	     5.00	  19.844	   23.281	   43.433	   51.073	  	 
   12.50	     5.00	  22.834	   31.045	   55.850	   66.220	  	 
   13.00	     5.00	  24.597	   32.937	   58.055	   68.657	  	 
   13.50	     5.00	  23.571	   30.968	   55.372	   65.157	  	 
   14.00	     5.00	  23.058	   30.125	   55.355	   64.265	  	 
   14.50	     5.00	  23.528	   32.967	   60.046	   70.135	  	 
   15.00	     5.00	  25.111	   37.898	   67.705	   83.228	  	 
   15.50	     5.00	  25.315	   41.103	   74.220	   92.388	  	 
   16.00	     5.00	  25.827	   44.309	   82.698	   99.343	  	 
   16.50	     5.00	  27.316	   49.755	   89.933	  109.818	  	 
   17.00	     5.00	  30.864	   61.708	  106.650	  131.536	  	 
   17.50	     5.00	  34.891	   74.025	  125.203	  152.107	  	 
   18.00	     5.00	  39.057	   81.753	  137.787	  170.678	  	 
   18.50	     5.00	  45.898	   99.309	  156.228	  203.153	  	 
   19.00	     5.00	  53.556	  107.476	  173.863	  198.691	  	 
   19.50	     5.00	  48.487	  101.553	  165.637	  198.169	  	 
   20.00	     5.00	  35.224	   70.947	  122.474	  149.615	  	 
   20.50	     5.00	  29.042	   50.988	   91.005	  113.559	  	 
   21.00	     5.00	  27.450	   45.653	   73.356	   93.895	  	 
   21.50	     5.00	  24.982	   38.157	   65.259	   81.758	  	 
   22.00	     5.00	  20.676	   30.874	   56.885	   68.297	  	 
   22.50	     5.00	  20.225	   31.131	   54.752	   67.085	  	 
   23.00	     5.00	  20.387	   30.845	   52.030	   66.560	  	 
   23.50	     5.00	  20.369	   29.474	   49.061	   61.968	  	 
    0.00	     7.00	  20.206	   27.642	   47.715	   60.103	  	 
    0.50	     7.00	  19.718	   28.916	   48.392	   60.388	  	 
    1.00	     7.00	  18.278	   28.872	   47.091	   59.176	  	 
    1.50	     7.00	  19.545	   29.792	   49.418	   61.160	  	 
    2.00	     7.00	  19.683	   31.177	   52.938	   64.552	  	 
    2.50	     7.00	  19.647	   31.370	   54.460	   67.242	  	 
    3.00	     7.00	  19.316	   29.935	   51.916	   66.501	  	 
    3.50	     7.00	  17.428	   28.595	   48.063	   60.456	  	 
    4.00	     7.00	  17.794	   28.849	   48.340	   57.142	  	 
    4.50	     7.00	  18.654	   29.844	   50.985	   61.424	  	 
    5.00	     7.00	  20.117	   32.595	   55.264	   66.276	  	 
    5.50	     7.00	  21.889	   34.785	   55.602	   65.815	  	 
    6.00	     7.00	  23.411	   39.101	   64.600	   78.049	  	 
    6.50	     7.00	  25.145	   40.698	   66.729	   81.117	  	 
    7.00	     7.00	  23.418	   36.858	   61.816	   75.141	  	 
    7.50	     7.00	  20.409	   29.264	   52.285	   63.439	  	 
    8.00	     7.00	  17.136	   24.077	   43.136	   52.805	  	 
    8.50	     7.00	  15.935	   20.930	   37.323	   44.566	  	 
    9.00	     7.00	  15.417	   17.582	   32.518	   38.830	  	 
    9.50	     7.00	  16.080	   18.463	   32.787	   38.727	  	 
   10.00	     7.00	  16.239	   18.755	   33.474	   39.521	  	 
   10.50	     7.00	  16.616	   20.011	   35.030	   42.780	  	 
   11.00	     7.00	  18.213	   21.827	   37.653	   46.789	  	 
   11.50	     7.00	  22.863	   23.187	   41.236	   49.767	  	 
   12.00	     7.00	  19.996	   24.250	   43.343	   52.460	  	 
   12.50	     7.00	  23.031	   31.847	   54.683	   65.601	  	 
   13.00	     7.00	  24.594	   33.729	   58.480	   70.828	  	 
   13.50	     7.00	  24.091	   32.443	   57.086	   68.535	  	 
   14.00	     7.00	  23.613	   31.387	   56.448	   68.176	  	 
   14.50	     7.00	  23.821	   33.880	   60.707	   73.932	  	 
   15.00	     7.00	  26.167	   39.506	   69.522	   87.150	  	 
   15.50	     7.00	  26.870	   43.189	   77.082	   97.115	  	 
   16.00	     7.00	  27.497	   47.595	   85.402	  104.967	  	 
   16.50	     7.00	  28.743	   53.424	   93.760	  118.035	  	 
   17.00	     7.00	  32.088	   65.346	  109.758	  136.753	  	 
   17.50	     7.00	  36.155	   78.041	  126.257	  154.716	  	 
   18.00	     7.00	  37.605	   80.781	  130.726	  164.063	  	 
   18.50	     7.00	  46.137	   97.088	  151.786	  195.014	  	 
   19.00	     7.00	  55.084	  111.992	  173.878	  202.159	  	 
   19.50	     7.00	  50.674	  105.428	  167.606	  202.099	  	 
   20.00	     7.00	  35.779	   72.166	  121.012	  154.064	  	 
   20.50	     7.00	  29.784	   52.294	   87.529	  115.470	  	 
   21.00	     7.00	  27.368	   46.043	   71.915	   99.105	  	 
   21.50	     7.00	  25.475	   39.383	   64.453	   81.758	  	 
   22.00	     7.00	  21.608	   33.522	   58.145	   69.825	  	 
   22.50	     7.00	  20.536	   32.733	   55.841	   68.607	  	 
   23.00	     7.00	  21.065	   32.429	   53.355	   68.615	  	 
   23.50	     7.00	  21.003	   30.496	   49.961	   66.133	  	 
    0.00	     9.00	  21.273	   30.134	   50.771	   64.078	  	 
    0.50	     9.00	  20.398	   30.214	   49.015	   62.039	  	 
    1.00	     9.00	  18.603	   29.195	   47.606	   60.061	  	 
    1.50	     9.00	  19.935	   30.194	   50.015	   61.977	  	 
    2.00	     9.00	  19.983	   32.305	   53.051	   65.838	  	 
    2.50	     9.00	  19.840	   33.031	   54.770	   68.211	  	 
    3.00	     9.00	  18.849	   31.504	   52.526	   66.571	  	 
    3.50	     9.00	  17.664	   29.569	   49.053	   61.758	  	 
    4.00	     9.00	  18.118	   30.448	   50.298	   60.325	  	 
    4.50	     9.00	  18.939	   32.196	   53.117	   65.088	  	 
    5.00	     9.00	  19.999	   34.955	   56.636	   69.763	  	 
    5.50	     9.00	  21.570	   35.613	   56.260	   67.979	  	 
    6.00	     9.00	  24.090	   41.256	   66.230	   81.384	  	 
    6.50	     9.00	  25.205	   41.976	   67.447	   83.508	  	 
    7.00	     9.00	  23.284	   36.974	   61.600	   76.588	  	 
    7.50	     9.00	  20.619	   30.121	   52.510	   64.010	  	 
    8.00	     9.00	  17.845	   24.863	   43.642	   54.326	  	 
    8.50	     9.00	  16.387	   21.456	   37.433	   45.747	  	 
    9.00	     9.00	  16.111	   18.575	   33.345	   40.468	  	 
    9.50	     9.00	  16.412	   19.236	   33.439	   40.134	  	 
   10.00	     9.00	  16.553	   19.626	   33.818	   41.028	  	 
   10.50	     9.00	  16.777	   20.906	   35.596	   44.168	  	 
   11.00	     9.00	  18.409	   22.662	   38.119	   47.533	  	 
   11.50	     9.00	  24.624	   24.606	   41.629	   50.672	  	 
   12.00	     9.00	  20.866	   25.439	   44.136	   54.499	  	 
   12.50	     9.00	  23.935	   34.079	   54.941	   66.015	  	 
   13.00	     9.00	  24.320	   35.707	   59.457	   73.209	  	 
   13.50	     9.00	  23.842	   34.904	   59.259	   72.350	  	 
   14.00	     9.00	  23.616	   34.002	   58.469	   72.603	  	 
   14.50	     9.00	  24.269	   36.080	   63.206	   78.781	  	 
   15.00	     9.00	  26.587	   41.743	   71.938	   91.085	  	 
   15.50	     9.00	  27.584	   46.542	   80.535	  101.528	  	 
   16.00	     9.00	  29.280	   51.837	   90.060	  110.669	  	 
   16.50	     9.00	  30.372	   57.184	   98.283	  125.308	  	 
   17.00	     9.00	  33.765	   68.605	  112.964	  138.597	  	 
   17.50	     9.00	  37.609	   81.671	  126.994	  156.820	  	 
   18.00	     9.00	  37.031	   79.500	  124.828	  158.351	  	 
   18.50	     9.00	  45.498	   95.906	  148.066	  184.734	  	 
   19.00	     9.00	  54.806	  115.502	  172.960	  204.906	  	 
   19.50	     9.00	  49.388	  106.655	  166.082	  203.316	  	 
   20.00	     9.00	  34.613	   71.905	  117.963	  158.703	  	 
   20.50	     9.00	  29.096	   54.617	   86.917	  117.890	  	 
   21.00	     9.00	  27.589	   47.709	   73.376	  105.080	  	 
   21.50	     9.00	  25.503	   40.318	   67.254	   82.704	  	 
   22.00	     9.00	  22.005	   35.816	   61.939	   73.317	  	 
   22.50	     9.00	  20.599	   34.608	   57.613	   71.577	  	 
   23.00	     9.00	  21.590	   34.417	   56.013	   70.989	  	 
   23.50	     9.00	  22.462	   32.587	   52.841	   72.311	  	 
    0.00	    11.00	  21.760	   32.658	   51.900	   65.327	  	 
    0.50	    11.00	  20.539	   31.763	   50.219	   62.787	  	 
    1.00	    11.00	  18.532	   30.927	   48.400	   60.560	  	 
    1.50	    11.00	  19.198	   32.064	   50.860	   62.613	  	 
    2.00	    11.00	  19.769	   33.727	   54.121	   67.570	  	 
    2.50	    11.00	  19.508	   34.757	   55.527	   70.703	  	 
    3.00	    11.00	  19.021	   33.641	   54.981	   68.716	  	 
    3.50	    11.00	  17.919	   31.691	   51.540	   64.127	  	 
    4.00	    11.00	  18.282	   32.421	   53.465	   64.770	  	 
    4.50	    11.00	  19.746	   35.049	   57.115	   70.455	  	 
    5.00	    11.00	  20.939	   37.203	   60.058	   75.040	  	 
    5.50	    11.00	  21.496	   37.249	   59.781	   73.765	  	 
    6.00	    11.00	  24.313	   44.793	   70.591	   87.128	  	 
    6.50	    11.00	  24.759	   43.707	   69.872	   87.302	  	 
    7.00	    11.00	  22.818	   37.527	   62.563	   77.997	  	 
    7.50	    11.00	  20.441	   31.099	   53.443	   65.921	  	 
    8.00	    11.00	  17.674	   25.987	   45.145	   56.326	  	 
    8.50	    11.00	  16.467	   22.065	   38.190	   47.567	  	 
    9.00	    11.00	  16.157	   19.362	   34.349	   42.436	  	 
    9.50	    11.00	  16.129	   19.626	   34.108	   41.407	  	 
   10.00	    11.00	  16.447	   20.292	   34.775	   42.827	  	 
   10.50	    11.00	  16.111	   21.346	   36.733	   45.536	  	 
   11.00	    11.00	  17.898	   23.283	   39.037	   48.392	  	 
   11.50	    11.00	  23.003	   25.536	   42.938	   52.093	  	 
   12.00	    11.00	  20.395	   26.757	   45.898	   56.560	  	 
   12.50	    11.00	  24.375	   37.292	   59.201	   70.585	  	 
   13.00	    11.00	  23.420	   37.155	   61.517	   75.805	  	 
   13.50	    11.00	  23.101	   37.352	   63.203	   77.535	  	 
   14.00	    11.00	  23.239	   36.861	   63.051	   78.302	  	 
   14.50	    11.00	  23.774	   39.110	   68.150	   84.535	  	 
   15.00	    11.00	  26.384	   44.447	   76.316	   95.317	  	 
   15.50	    11.00	  27.752	   49.446	   84.409	  105.793	  	 
   16.00	    11.00	  30.503	   55.316	   94.947	  117.084	  	 
   16.50	    11.00	  30.287	   61.722	  103.137	  129.634	  	 
   17.00	    11.00	  33.812	   71.136	  114.409	  139.257	  	 
   17.50	    11.00	  36.639	   79.997	  125.812	  155.644	  	 
   18.00	    11.00	  34.963	   77.225	  121.084	  154.744	  	 
   18.50	    11.00	  42.859	   95.329	  145.910	  180.904	  	 
   19.00	    11.00	  52.093	  114.825	  169.708	  201.977	  	 
   19.50	    11.00	  47.567	  104.950	  161.651	  197.443	  	 
   20.00	    11.00	  33.145	   71.019	  116.249	  160.098	  	 
   20.50	    11.00	  28.156	   56.469	   86.547	  118.718	  	 
   21.00	    11.00	  28.269	   51.549	   75.911	  106.684	  	 
   21.50	    11.00	  25.858	   41.633	   69.524	   86.614	  	 
   22.00	    11.00	  22.734	   37.551	   64.879	   78.662	  	 
   22.50	    11.00	  20.771	   36.907	   61.306	   75.987	  	 
   23.00	    11.00	  22.162	   36.091	   58.695	   73.535	  	 
   23.50	    11.00	  22.672	   34.109	   54.872	   73.575	  	 
    0.00	    13.00	  20.385	   32.478	   52.654	   66.134	  	 
    0.50	    13.00	  19.400	   31.795	   50.546	   62.653	  	 
    1.00	    13.00	  18.545	   32.158	   49.910	   61.508	  	 
    1.50	    13.00	  18.870	   33.045	   51.656	   63.431	  	 
    2.00	    13.00	  19.111	   34.456	   55.945	   70.045	  	 
    2.50	    13.00	  18.621	   35.968	   58.253	   74.480	  	 
    3.00	    13.00	  18.102	   35.136	   58.275	   72.552	  	 
    3.50	    13.00	  17.080	   32.989	   55.348	   68.366	  	 
    4.00	    13.00	  18.297	   35.118	   57.216	   70.649	  	 
    4.50	    13.00	  19.827	   37.542	   61.732	   77.804	  	 
    5.00	    13.00	  21.478	   39.594	   65.136	   80.986	  	 
    5.50	    13.00	  21.421	   40.110	   65.853	   81.942	  	 
    6.00	    13.00	  23.984	   47.688	   76.763	   94.920	  	 
    6.50	    13.00	  23.844	   44.769	   73.709	   91.931	  	 
    7.00	    13.00	  21.460	   38.054	   64.751	   80.968	  	 
    7.50	    13.00	  19.574	   32.170	   55.978	   69.036	  	 
    8.00	    13.00	  16.938	   26.828	   46.858	   58.677	  	 
    8.50	    13.00	  15.596	   22.750	   40.391	   50.498	  	 
    9.00	    13.00	  14.932	   20.003	   36.126	   44.977	  	 
    9.50	    13.00	  14.747	   19.557	   34.773	   42.792	  	 
   10.00	    13.00	  15.224	   20.778	   36.681	   45.026	  	 
   10.50	    13.00	  14.782	   21.713	   38.357	   47.214	  	 
   11.00	    13.00	  16.044	   23.722	   40.756	   49.608	  	 
   11.50	    13.00	  18.918	   25.933	   44.552	   54.266	  	 
   12.00	    13.00	  18.410	   26.882	   47.506	   58.094	  	 
   12.50	    13.00	  23.974	   40.531	   65.609	   79.162	  	 
   13.00	    13.00	  21.940	   37.326	   62.767	   77.712	  	 
   13.50	    13.00	  22.863	   40.270	   68.173	   83.196	  	 
   14.00	    13.00	  22.490	   39.979	   69.749	   86.234	  	 
   14.50	    13.00	  23.270	   42.789	   75.761	   92.432	  	 
   15.00	    13.00	  24.956	   46.855	   81.590	  101.196	  	 
   15.50	    13.00	  26.619	   51.909	   89.199	  110.983	  	 
   16.00	    13.00	  29.370	   59.120	   99.883	  123.968	  	 
   16.50	    13.00	  30.495	   65.234	  107.775	  132.991	  	 
   17.00	    13.00	  33.184	   70.875	  114.185	  140.089	  	 
   17.50	    13.00	  32.795	   73.383	  121.203	  148.282	  	 
   18.00	    13.00	  32.754	   73.440	  119.700	  152.502	  	 
   18.50	    13.00	  39.753	   93.341	  144.600	  180.753	  	 
   19.00	    13.00	  47.556	  109.325	  164.864	  198.041	  	 
   19.50	    13.00	  44.145	  100.609	  154.193	  190.293	  	 
   20.00	    13.00	  31.133	   70.039	  115.265	  160.088	  	 
   20.50	    13.00	  26.781	   56.557	   89.608	  116.634	  	 
   21.00	    13.00	  27.590	   53.578	   79.558	  104.778	  	 
   21.50	    13.00	  25.248	   44.188	   71.077	   90.217	  	 
   22.00	    13.00	  22.454	   40.186	   67.527	   84.649	  	 
   22.50	    13.00	  19.965	   39.016	   65.463	   82.224	  	 
   23.00	    13.00	  21.032	   37.112	   60.360	   76.524	  	 
   23.50	    13.00	  20.805	   33.319	   55.282	   71.264	  	 
    0.00	    15.00	  19.446	   32.749	   52.914	   66.938	  	 
    0.50	    15.00	  19.320	   31.754	   51.801	   64.252	  	 
    1.00	    15.00	  18.593	   32.472	   50.902	   62.276	  	 
    1.50	    15.00	  18.827	   32.830	   52.126	   63.982	  	 
    2.00	    15.00	  19.335	   34.830	   57.261	   71.119	  	 
    2.50	    15.00	  18.543	   36.642	   59.649	   76.360	  	 
    3.00	    15.00	  17.957	   35.912	   61.013	   75.271	  	 
    3.50	    15.00	  17.111	   34.088	   58.183	   72.197	  	 
    4.00	    15.00	  19.008	   36.566	   59.704	   74.444	  	 
    4.50	    15.00	  20.270	   39.389	   65.603	   81.475	  	 
    5.00	    15.00	  21.291	   41.879	   68.756	   85.248	  	 
    5.50	    15.00	  22.198	   43.191	   72.363	   89.379	  	 
    6.00	    15.00	  24.854	   50.141	   81.167	  100.453	  	 
    6.50	    15.00	  23.621	   45.736	   76.243	   94.788	  	 
    7.00	    15.00	  21.134	   38.821	   66.176	   82.628	  	 
    7.50	    15.00	  19.061	   33.168	   57.780	   71.624	  	 
    8.00	    15.00	  16.557	   27.896	   48.811	   60.921	  	 
    8.50	    15.00	  15.159	   23.397	   41.809	   52.721	  	 
    9.00	    15.00	  13.920	   20.456	   37.637	   47.309	  	 
    9.50	    15.00	  13.771	   19.292	   35.178	   43.813	  	 
   10.00	    15.00	  14.358	   21.259	   38.127	   46.258	  	 
   10.50	    15.00	  13.909	   22.317	   39.552	   48.024	  	 
   11.00	    15.00	  14.771	   23.843	   41.977	   50.643	  	 
   11.50	    15.00	  16.644	   25.839	   45.380	   55.784	  	 
   12.00	    15.00	  17.037	   26.582	   47.722	   58.712	  	 
   12.50	    15.00	  22.002	   39.392	   65.448	   79.292	  	 
   13.00	    15.00	  20.811	   36.599	   61.744	   76.581	  	 
   13.50	    15.00	  22.745	   41.924	   70.699	   85.966	  	 
   14.00	    15.00	  23.027	   43.445	   75.149	   92.023	  	 
   14.50	    15.00	  23.981	   46.603	   81.545	   99.120	  	 
   15.00	    15.00	  24.970	   50.069	   86.561	  105.932	  	 
   15.50	    15.00	  26.126	   54.550	   93.314	  115.097	  	 
   16.00	    15.00	  29.011	   61.401	  103.080	  128.575	  	 
   16.50	    15.00	  31.401	   67.065	  109.582	  136.296	  	 
   17.00	    15.00	  32.752	   68.171	  111.764	  139.617	  	 
   17.50	    15.00	  31.169	   68.493	  114.441	  143.313	  	 
   18.00	    15.00	  32.288	   71.810	  118.202	  151.505	  	 
   18.50	    15.00	  38.485	   89.319	  140.473	  175.882	  	 
   19.00	    15.00	  45.334	  102.649	  157.021	  191.865	  	 
   19.50	    15.00	  43.756	   97.574	  147.974	  182.811	  	 
   20.00	    15.00	  30.614	   70.273	  115.563	  156.366	  	 
   20.50	    15.00	  27.311	   57.968	   91.866	  117.873	  	 
   21.00	    15.00	  27.380	   54.916	   83.132	  105.454	  	 
   21.50	    15.00	  24.917	   45.791	   73.198	   94.917	  	 
   22.00	    15.00	  23.670	   42.317	   70.044	   89.149	  	 
   22.50	    15.00	  20.889	   40.815	   68.105	   85.729	  	 
   23.00	    15.00	  20.301	   36.971	   62.012	   77.776	  	 
   23.50	    15.00	  19.790	   32.570	   55.855	   72.475	  	 
    0.00	    17.00	  19.759	   34.926	   54.628	   70.116	  	 
    0.50	    17.00	  19.895	   32.080	   53.492	   66.978	  	 
    1.00	    17.00	  18.895	   32.478	   51.757	   63.843	  	 
    1.50	    17.00	  18.311	   32.499	   52.322	   64.228	  	 
    2.00	    17.00	  19.646	   34.835	   57.302	   71.329	  	 
    2.50	    17.00	  19.119	   36.672	   61.059	   78.014	  	 
    3.00	    17.00	  18.956	   35.963	   62.130	   77.096	  	 
    3.50	    17.00	  17.606	   34.835	   59.525	   74.005	  	 
    4.00	    17.00	  18.730	   37.106	   60.965	   75.248	  	 
    4.50	    17.00	  20.338	   40.372	   66.871	   82.564	  	 
    5.00	    17.00	  20.795	   43.323	   70.540	   86.927	  	 
    5.50	    17.00	  22.905	   47.465	   77.928	   97.106	  	 
    6.00	    17.00	  25.032	   52.333	   84.366	  103.807	  	 
    6.50	    17.00	  23.188	   46.470	   77.490	   96.371	  	 
    7.00	    17.00	  21.110	   39.569	   67.625	   84.036	  	 
    7.50	    17.00	  18.942	   34.203	   59.158	   73.045	  	 
    8.00	    17.00	  16.668	   28.687	   50.291	   62.537	  	 
    8.50	    17.00	  14.584	   23.844	   43.087	   54.731	  	 
    9.00	    17.00	  13.138	   20.323	   37.734	   48.538	  	 
    9.50	    17.00	  13.096	   19.006	   35.166	   44.315	  	 
   10.00	    17.00	  14.004	   21.713	   38.919	   47.090	  	 
   10.50	    17.00	  14.040	   23.017	   40.355	   49.265	  	 
   11.00	    17.00	  15.290	   24.069	   42.319	   51.628	  	 
   11.50	    17.00	  17.049	   25.510	   44.899	   56.601	  	 
   12.00	    17.00	  16.741	   26.126	   46.698	   58.612	  	 
   12.50	    17.00	  18.485	   32.821	   57.760	   71.175	  	 
   13.00	    17.00	  19.376	   33.627	   58.387	   73.432	  	 
   13.50	    17.00	  22.426	   41.472	   69.784	   85.097	  	 
   14.00	    17.00	  23.729	   46.129	   78.326	   95.039	  	 
   14.50	    17.00	  24.969	   49.470	   85.299	  103.941	  	 
   15.00	    17.00	  25.782	   52.477	   90.291	  110.700	  	 
   15.50	    17.00	  26.677	   56.816	   96.254	  117.781	  	 
   16.00	    17.00	  29.217	   62.463	  104.676	  130.993	  	 
   16.50	    17.00	  30.027	   66.615	  109.005	  139.998	  	 
   17.00	    17.00	  30.271	   65.058	  107.081	  135.142	  	 
   17.50	    17.00	  29.523	   64.324	  106.532	  135.694	  	 
   18.00	    17.00	  31.785	   70.695	  116.716	  151.529	  	 
   18.50	    17.00	  37.297	   85.720	  134.674	  168.906	  	 
   19.00	    17.00	  43.130	   95.663	  146.869	  184.109	  	 
   19.50	    17.00	  42.642	   94.864	  144.354	  179.292	  	 
   20.00	    17.00	  30.551	   69.548	  114.890	  148.493	  	 
   20.50	    17.00	  28.403	   59.734	   94.075	  122.303	  	 
   21.00	    17.00	  28.091	   57.813	   85.366	  109.951	  	 
   21.50	    17.00	  26.003	   47.933	   78.689	   97.715	  	 
   22.00	    17.00	  24.021	   44.234	   71.798	   93.444	  	 
   22.50	    17.00	  22.331	   42.437	   70.236	   87.336	  	 
   23.00	    17.00	  20.141	   36.173	   62.688	   78.904	  	 
   23.50	    17.00	  19.637	   32.919	   58.268	   76.867	  	 
    0.00	    19.00	  20.124	   35.695	   56.126	   71.701	  	 
    0.50	    19.00	  20.605	   32.455	   55.700	   68.145	  	 
    1.00	    19.00	  19.273	   32.702	   53.371	   65.610	  	 
    1.50	    19.00	  18.311	   32.480	   52.825	   64.671	  	 
    2.00	    19.00	  19.433	   34.927	   58.271	   71.635	  	 
    2.50	    19.00	  19.596	   36.794	   62.079	   79.063	  	 
    3.00	    19.00	  19.441	   36.071	   62.510	   78.208	  	 
    3.50	    19.00	  18.262	   35.118	   60.026	   74.638	  	 
    4.00	    19.00	  18.684	   36.911	   61.488	   75.615	  	 
    4.50	    19.00	  19.987	   40.491	   67.181	   82.822	  	 
    5.00	    19.00	  20.740	   43.508	   71.866	   89.489	  	 
    5.50	    19.00	  24.349	   51.352	   84.532	  103.023	  	 
    6.00	    19.00	  25.428	   53.849	   86.475	  105.982	  	 
    6.50	    19.00	  23.037	   46.980	   79.047	   97.118	  	 
    7.00	    19.00	  21.269	   40.298	   68.944	   85.208	  	 
    7.50	    19.00	  19.246	   35.125	   60.293	   74.107	  	 
    8.00	    19.00	  16.981	   29.449	   51.786	   63.911	  	 
    8.50	    19.00	  14.586	   24.243	   44.074	   55.235	  	 
    9.00	    19.00	  12.732	   20.055	   37.542	   48.376	  	 
    9.50	    19.00	  12.624	   18.961	   34.953	   44.337	  	 
   10.00	    19.00	  13.901	   22.197	   39.218	   47.413	  	 
   10.50	    19.00	  14.341	   23.590	   41.215	   50.436	  	 
   11.00	    19.00	  15.800	   24.041	   42.491	   52.414	  	 
   11.50	    19.00	  17.819	   25.332	   44.651	   56.940	  	 
   12.00	    19.00	  16.893	   26.306	   46.524	   58.803	  	 
   12.50	    19.00	  16.940	   28.351	   52.006	   64.844	  	 
   13.00	    19.00	  18.720	   31.088	   55.573	   69.949	  	 
   13.50	    19.00	  21.747	   39.439	   67.020	   82.346	  	 
   14.00	    19.00	  23.952	   46.113	   78.088	   94.966	  	 
   14.50	    19.00	  25.590	   50.533	   86.028	  105.842	  	 
   15.00	    19.00	  26.716	   53.746	   91.762	  112.534	  	 
   15.50	    19.00	  27.534	   57.999	   97.443	  119.401	  	 
   16.00	    19.00	  29.534	   62.393	  103.578	  129.417	  	 
   16.50	    19.00	  29.234	   64.277	  105.766	  137.533	  	 
   17.00	    19.00	  27.583	   60.460	  101.811	  128.370	  	 
   17.50	    19.00	  27.039	   59.454	   99.645	  125.362	  	 
   18.00	    19.00	  29.985	   68.518	  114.777	  148.385	  	 
   18.50	    19.00	  36.081	   81.175	  128.246	  162.274	  	 
   19.00	    19.00	  40.920	   88.185	  137.730	  176.320	  	 
   19.50	    19.00	  41.905	   90.546	  141.939	  174.906	  	 
   20.00	    19.00	  31.067	   69.995	  114.410	  143.619	  	 
   20.50	    19.00	  28.333	   61.679	   95.680	  125.667	  	 
   21.00	    19.00	  28.551	   59.830	   86.672	  114.412	  	 
   21.50	    19.00	  27.367	   50.728	   80.876	  100.999	  	 
   22.00	    19.00	  25.456	   46.561	   75.899	   95.149	  	 
   22.50	    19.00	  23.057	   42.797	   69.888	   87.614	  	 
   23.00	    19.00	  19.731	   34.894	   61.798	   78.190	  	 
   23.50	    19.00	  19.717	   33.479	   60.110	   78.470	  	 
    0.00	    21.00	  20.450	   34.300	   55.931	   69.889	  	 
    0.50	    21.00	  21.612	   33.676	   56.412	   68.429	  	 
    1.00	    21.00	  20.007	   33.322	   54.915	   66.253	  	 
    1.50	    21.00	  19.042	   33.557	   53.826	   65.926	  	 
    2.00	    21.00	  19.503	   35.583	   59.823	   73.224	  	 
    2.50	    21.00	  19.929	   37.412	   63.435	   80.826	  	 
    3.00	    21.00	  19.866	   37.219	   64.139	   79.877	  	 
    3.50	    21.00	  18.717	   35.861	   61.329	   75.572	  	 
    4.00	    21.00	  18.727	   37.115	   61.772	   76.469	  	 
    4.50	    21.00	  20.288	   40.327	   68.073	   84.308	  	 
    5.00	    21.00	  22.075	   44.552	   75.137	   93.104	  	 
    5.50	    21.00	  27.708	   55.438	   91.213	  108.884	  	 
    6.00	    21.00	  26.282	   53.889	   87.687	  105.698	  	 
    6.50	    21.00	  23.442	   47.412	   79.980	   98.015	  	 
    7.00	    21.00	  21.750	   41.114	   70.833	   86.964	  	 
    7.50	    21.00	  19.753	   35.310	   61.616	   75.514	  	 
    8.00	    21.00	  17.331	   30.380	   53.238	   64.956	  	 
    8.50	    21.00	  14.572	   24.712	   44.478	   55.439	  	 
    9.00	    21.00	  12.530	   19.839	   37.619	   47.658	  	 
    9.50	    21.00	  12.545	   19.249	   35.234	   44.396	  	 
   10.00	    21.00	  13.876	   22.769	   39.568	   47.720	  	 
   10.50	    21.00	  14.560	   24.262	   42.133	   51.493	  	 
   11.00	    21.00	  15.263	   24.367	   43.100	   52.795	  	 
   11.50	    21.00	  17.484	   25.914	   45.651	   57.328	  	 
   12.00	    21.00	  17.218	   27.469	   47.918	   59.668	  	 
   12.50	    21.00	  17.612	   29.062	   50.568	   62.588	  	 
   13.00	    21.00	  18.130	   30.379	   54.096	   67.752	  	 
   13.50	    21.00	  20.325	   36.425	   63.599	   78.398	  	 
   14.00	    21.00	  23.440	   44.227	   74.877	   91.684	  	 
   14.50	    21.00	  25.122	   49.748	   83.808	  103.773	  	 
   15.00	    21.00	  26.818	   53.940	   91.219	  111.843	  	 
   15.50	    21.00	  27.410	   57.613	   96.461	  118.815	  	 
   16.00	    21.00	  28.314	   60.494	  100.706	  121.710	  	 
   16.50	    21.00	  27.487	   60.395	  101.812	  130.717	  	 
   17.00	    21.00	  25.381	   55.558	   95.183	  120.065	  	 
   17.50	    21.00	  25.504	   56.070	   96.825	  120.854	  	 
   18.00	    21.00	  28.285	   64.808	  109.141	  137.833	  	 
   18.50	    21.00	  34.723	   77.591	  123.853	  155.834	  	 
   19.00	    21.00	  39.709	   82.750	  130.053	  167.172	  	 
   19.50	    21.00	  40.639	   85.164	  132.760	  166.013	  	 
   20.00	    21.00	  33.518	   74.140	  115.433	  145.482	  	 
   20.50	    21.00	  28.687	   62.233	   99.453	  127.157	  	 
   21.00	    21.00	  29.746	   61.658	   91.236	  115.681	  	 
   21.50	    21.00	  28.303	   53.387	   85.514	  104.985	  	 
   22.00	    21.00	  25.739	   47.902	   78.619	   95.844	  	 
   22.50	    21.00	  23.043	   41.701	   68.313	   87.219	  	 
   23.00	    21.00	  19.264	   34.120	   59.390	   74.888	  	 
   23.50	    21.00	  20.006	   33.758	   58.832	   74.482	  	 
    0.00	    23.00	  21.156	   33.481	   55.989	   69.750	  	 
    0.50	    23.00	  22.863	   34.620	   56.545	   68.610	  	 
    1.00	    23.00	  21.520	   34.428	   55.611	   66.983	  	 
    1.50	    23.00	  20.610	   34.586	   55.550	   67.756	  	 
    2.00	    23.00	  20.401	   35.936	   61.027	   74.173	  	 
    2.50	    23.00	  20.355	   37.333	   64.512	   81.377	  	 
    3.00	    23.00	  20.294	   37.613	   65.271	   80.998	  	 
    3.50	    23.00	  18.978	   36.189	   62.138	   76.385	  	 
    4.00	    23.00	  18.548	   36.951	   61.523	   76.420	  	 
    4.50	    23.00	  21.293	   40.602	   68.925	   86.088	  	 
    5.00	    23.00	  23.656	   46.168	   78.299	   97.172	  	 
    5.50	    23.00	  29.538	   57.545	   93.550	  111.960	  	 
    6.00	    23.00	  26.651	   53.064	   87.509	  105.595	  	 
    6.50	    23.00	  23.786	   47.234	   79.569	   97.565	  	 
    7.00	    23.00	  22.187	   41.378	   72.214	   87.431	  	 
    7.50	    23.00	  19.949	   35.376	   62.012	   76.018	  	 
    8.00	    23.00	  17.235	   30.869	   53.660	   64.943	  	 
    8.50	    23.00	  14.839	   24.612	   44.332	   54.715	  	 
    9.00	    23.00	  12.484	   19.605	   37.557	   46.050	  	 
    9.50	    23.00	  12.372	   19.270	   35.539	   43.899	  	 
   10.00	    23.00	  13.697	   22.499	   39.208	   47.795	  	 
   10.50	    23.00	  14.463	   24.485	   42.473	   52.035	  	 
   11.00	    23.00	  14.797	   24.622	   43.342	   52.993	  	 
   11.50	    23.00	  16.543	   26.322	   46.391	   57.739	  	 
   12.00	    23.00	  17.123	   27.776	   48.599	   60.094	  	 
   12.50	    23.00	  17.608	   28.808	   49.867	   61.438	  	 
   13.00	    23.00	  17.672	   29.819	   53.112	   66.067	  	 
   13.50	    23.00	  19.135	   33.205	   59.696	   73.742	  	 
   14.00	    23.00	  21.924	   40.486	   69.414	   86.250	  	 
   14.50	    23.00	  23.690	   46.709	   79.453	   98.299	  	 
   15.00	    23.00	  25.679	   51.894	   87.788	  107.473	  	 
   15.50	    23.00	  26.274	   54.542	   92.571	  115.335	  	 
   16.00	    23.00	  26.642	   55.870	   95.843	  114.123	  	 
   16.50	    23.00	  25.821	   54.595	   95.047	  120.921	  	 
   17.00	    23.00	  24.330	   51.659	   88.746	  112.906	  	 
   17.50	    23.00	  24.957	   54.333	   93.916	  116.157	  	 
   18.00	    23.00	  27.450	   61.775	  102.794	  129.120	  	 
   18.50	    23.00	  33.440	   73.336	  119.416	  150.708	  	 
   19.00	    23.00	  38.793	   78.418	  122.542	  157.555	  	 
   19.50	    23.00	  40.220	   81.519	  126.243	  159.978	  	 
   20.00	    23.00	  36.744	   78.651	  117.839	  149.097	  	 
   20.50	    23.00	  31.505	   64.930	  102.694	  128.734	  	 
   21.00	    23.00	  31.952	   63.304	   96.004	  118.171	  	 
   21.50	    23.00	  29.613	   53.460	   90.207	  107.279	  	 
   22.00	    23.00	  26.913	   47.341	   81.495	   97.485	  	 
   22.50	    23.00	  22.791	   39.910	   66.804	   86.192	  	 
   23.00	    23.00	  19.695	   33.598	   57.816	   72.166	  	 
   23.50	    23.00	  21.131	   34.680	   57.449	   73.429	  	 
    0.00	    25.00	  22.825	   34.451	   57.191	   71.737	  	 
    0.50	    25.00	  24.140	   34.507	   56.723	   70.295	  	 
    1.00	    25.00	  23.578	   34.927	   56.673	   68.999	  	 
    1.50	    25.00	  21.989	   35.114	   56.848	   70.426	  	 
    2.00	    25.00	  21.893	   36.182	   62.093	   76.085	  	 
    2.50	    25.00	  21.053	   37.157	   64.318	   80.417	  	 
    3.00	    25.00	  21.071	   37.159	   64.210	   80.323	  	 
    3.50	    25.00	  19.537	   35.633	   61.713	   75.897	  	 
    4.00	    25.00	  18.913	   35.962	   61.423	   75.478	  	 
    4.50	    25.00	  21.544	   42.010	   70.670	   87.557	  	 
    5.00	    25.00	  24.478	   48.134	   79.811	   99.095	  	 
    5.50	    25.00	  29.360	   56.415	   91.794	  111.328	  	 
    6.00	    25.00	  27.508	   51.896	   85.660	  104.488	  	 
    6.50	    25.00	  24.168	   46.365	   78.854	   95.758	  	 
    7.00	    25.00	  22.640	   40.672	   71.640	   86.382	  	 
    7.50	    25.00	  20.256	   35.139	   61.903	   75.284	  	 
    8.00	    25.00	  17.714	   30.509	   53.552	   64.291	  	 
    8.50	    25.00	  15.161	   24.334	   43.540	   53.734	  	 
    9.00	    25.00	  13.043	   19.850	   37.042	   45.349	  	 
    9.50	    25.00	  12.622	   19.148	   35.183	   43.441	  	 
   10.00	    25.00	  13.973	   22.012	   38.692	   47.427	  	 
   10.50	    25.00	  14.977	   24.235	   41.857	   51.622	  	 
   11.00	    25.00	  15.417	   24.928	   43.489	   53.439	  	 
   11.50	    25.00	  17.383	   26.655	   46.575	   58.368	  	 
   12.00	    25.00	  17.724	   27.820	   49.052	   61.258	  	 
   12.50	    25.00	  17.824	   28.388	   49.975	   61.773	  	 
   13.00	    25.00	  18.996	   30.117	   52.910	   65.119	  	 
   13.50	    25.00	  19.543	   32.122	   56.709	   70.320	  	 
   14.00	    25.00	  20.977	   36.578	   64.208	   80.124	  	 
   14.50	    25.00	  22.856	   41.825	   72.604	   90.379	  	 
   15.00	    25.00	  24.715	   46.960	   80.484	   99.733	  	 
   15.50	    25.00	  25.375	   48.415	   85.759	  108.635	  	 
   16.00	    25.00	  25.606	   49.798	   88.040	  106.673	  	 
   16.50	    25.00	  25.314	   49.914	   86.295	  108.316	  	 
   17.00	    25.00	  25.510	   49.969	   86.904	  109.201	  	 
   17.50	    25.00	  25.608	   52.806	   90.106	  112.973	  	 
   18.00	    25.00	  28.368	   59.660	   98.978	  123.624	  	 
   18.50	    25.00	  34.189	   70.678	  115.586	  146.654	  	 
   19.00	    25.00	  39.480	   75.597	  120.178	  154.124	  	 
   19.50	    25.00	  41.253	   78.924	  123.972	  156.189	  	 
   20.00	    25.00	  41.177	   80.186	  124.610	  153.489	  	 
   20.50	    25.00	  35.271	   68.356	  107.041	  133.895	  	 
   21.00	    25.00	  34.111	   64.278	   98.076	  121.942	  	 
   21.50	    25.00	  31.813	   53.914	   91.031	  109.597	  	 
   22.00	    25.00	  28.167	   47.630	   83.989	   97.730	  	 
   22.50	    25.00	  24.105	   39.677	   68.449	   85.849	  	 
   23.00	    25.00	  20.880	   34.129	   58.962	   73.920	  	 
   23.50	    25.00	  22.632	   37.701	   59.534	   75.405	  	 
    0.00	    27.00	  23.901	   35.370	   59.468	   74.994	  	 
    0.50	    27.00	  24.971	   34.603	   58.759	   72.010	  	 
    1.00	    27.00	  25.001	   35.259	   58.553	   71.537	  	 
    1.50	    27.00	  23.177	   35.366	   58.172	   72.351	  	 
    2.00	    27.00	  23.096	   36.893	   63.157	   77.380	  	 
    2.50	    27.00	  22.347	   37.209	   63.865	   79.573	  	 
    3.00	    27.00	  21.979	   36.645	   63.535	   79.192	  	 
    3.50	    27.00	  20.394	   35.310	   61.336	   75.645	  	 
    4.00	    27.00	  19.898	   35.757	   61.986	   75.418	  	 
    4.50	    27.00	  23.266	   43.783	   73.045	   89.256	  	 
    5.00	    27.00	  26.003	   50.089	   81.685	  101.219	  	 
    5.50	    27.00	  29.387	   55.148	   89.245	  109.380	  	 
    6.00	    27.00	  27.536	   50.568	   84.283	  103.225	  	 
    6.50	    27.00	  24.271	   45.439	   77.631	   93.791	  	 
    7.00	    27.00	  22.406	   40.162	   71.282	   85.157	  	 
    7.50	    27.00	  20.691	   34.557	   61.551	   74.615	  	 
    8.00	    27.00	  18.219	   30.064	   53.209	   64.122	  	 
    8.50	    27.00	  15.367	   24.501	   43.372	   53.507	  	 
    9.00	    27.00	  13.420	   19.938	   36.750	   44.919	  	 
    9.50	    27.00	  12.687	   18.963	   34.800	   43.063	  	 
   10.00	    27.00	  14.317	   21.695	   38.552	   47.068	  	 
   10.50	    27.00	  15.415	   23.994	   41.971	   51.252	  	 
   11.00	    27.00	  15.914	   25.001	   43.738	   53.668	  	 
   11.50	    27.00	  18.535	   26.902	   46.588	   58.548	  	 
   12.00	    27.00	  18.603	   28.076	   49.259	   61.456	  	 
   12.50	    27.00	  18.315	   28.185	   50.295	   61.731	  	 
   13.00	    27.00	  19.973	   30.814	   53.455	   64.834	  	 
   13.50	    27.00	  20.074	   31.899	   55.352	   68.562	  	 
   14.00	    27.00	  20.590	   34.260	   60.619	   75.880	  	 
   14.50	    27.00	  21.833	   37.897	   66.593	   83.396	  	 
   15.00	    27.00	  23.225	   41.940	   73.318	   91.549	  	 
   15.50	    27.00	  23.588	   42.833	   78.165	  100.596	  	 
   16.00	    27.00	  24.363	   44.773	   80.991	   99.673	  	 
   16.50	    27.00	  24.742	   46.301	   79.021	   98.071	  	 
   17.00	    27.00	  25.406	   48.544	   84.855	  104.262	  	 
   17.50	    27.00	  25.810	   51.091	   86.954	  108.995	  	 
   18.00	    27.00	  28.875	   57.117	   94.561	  119.338	  	 
   18.50	    27.00	  34.483	   68.385	  112.115	  140.954	  	 
   19.00	    27.00	  39.900	   73.811	  118.229	  148.914	  	 
   19.50	    27.00	  41.133	   76.164	  122.095	  151.952	  	 
   20.00	    27.00	  44.729	   80.153	  129.159	  155.524	  	 
   20.50	    27.00	  38.015	   71.815	  112.661	  136.711	  	 
   21.00	    27.00	  36.599	   67.371	  100.820	  125.974	  	 
   21.50	    27.00	  34.761	   56.095	   90.840	  110.485	  	 
   22.00	    27.00	  29.079	   48.326	   84.078	   98.181	  	 
   22.50	    27.00	  24.990	   40.138	   69.619	   85.211	  	 
   23.00	    27.00	  21.955	   34.763	   60.423	   77.330	  	 
   23.50	    27.00	  23.879	   38.945	   61.637	   78.119	  	 
    0.00	    29.00	  24.220	   36.239	   61.327	   77.440	  	 
    0.50	    29.00	  24.882	   35.043	   59.219	   73.852	  	 
    1.00	    29.00	  25.663	   35.418	   58.979	   73.127	  	 
    1.50	    29.00	  24.055	   35.625	   58.824	   73.373	  	 
    2.00	    29.00	  23.515	   37.087	   62.653	   78.228	  	 
    2.50	    29.00	  22.760	   37.380	   64.072	   80.461	  	 
    3.00	    29.00	  22.116	   36.140	   63.440	   79.314	  	 
    3.50	    29.00	  20.982	   35.723	   62.293	   76.669	  	 
    4.00	    29.00	  20.767	   37.284	   63.759	   76.588	  	 
    4.50	    29.00	  24.966	   45.347	   74.704	   92.278	  	 
    5.00	    29.00	  27.877	   52.281	   84.834	  104.739	  	 
    5.50	    29.00	  30.015	   54.140	   86.892	  107.000	  	 
    6.00	    29.00	  26.835	   48.525	   81.658	  100.669	  	 
    6.50	    29.00	  24.040	   44.683	   76.058	   92.762	  	 
    7.00	    29.00	  22.401	   39.736	   70.047	   83.688	  	 
    7.50	    29.00	  20.734	   34.281	   61.189	   74.485	  	 
    8.00	    29.00	  18.439	   29.946	   52.096	   63.962	  	 
    8.50	    29.00	  16.098	   24.592	   43.286	   52.971	  	 
    9.00	    29.00	  13.562	   19.706	   36.452	   44.488	  	 
    9.50	    29.00	  12.684	   18.591	   34.272	   42.280	  	 
   10.00	    29.00	  14.337	   21.046	   37.524	   45.637	  	 
   10.50	    29.00	  15.632	   23.792	   41.405	   50.257	  	 
   11.00	    29.00	  15.958	   24.498	   43.141	   52.594	  	 
   11.50	    29.00	  18.376	   26.156	   45.947	   57.319	  	 
   12.00	    29.00	  18.871	   27.308	   47.765	   59.786	  	 
   12.50	    29.00	  18.110	   26.924	   48.843	   59.876	  	 
   13.00	    29.00	  19.532	   29.773	   52.311	   63.495	  	 
   13.50	    29.00	  19.849	   31.570	   54.683	   67.455	  	 
   14.00	    29.00	  20.202	   33.138	   58.413	   73.130	  	 
   14.50	    29.00	  20.578	   34.939	   62.450	   78.386	  	 
   15.00	    29.00	  21.755	   38.357	   67.782	   84.055	  	 
   15.50	    29.00	  22.061	   39.929	   71.004	   89.496	  	 
   16.00	    29.00	  23.050	   41.873	   73.849	   91.921	  	 
   16.50	    29.00	  23.521	   43.504	   75.193	   92.234	  	 
   17.00	    29.00	  24.643	   46.050	   80.364	   97.479	  	 
   17.50	    29.00	  25.519	   48.830	   83.100	  103.228	  	 
   18.00	    29.00	  28.074	   54.443	   91.128	  113.679	  	 
   18.50	    29.00	  33.546	   64.945	  104.989	  131.263	  	 
   19.00	    29.00	  38.846	   70.368	  113.392	  139.876	  	 
   19.50	    29.00	  41.209	   72.931	  118.351	  144.953	  	 
   20.00	    29.00	  45.041	   80.919	  126.673	  147.031	  	 
   20.50	    29.00	  40.605	   75.797	  115.305	  136.366	  	 
   21.00	    29.00	  38.920	   69.971	  103.090	  128.266	  	 
   21.50	    29.00	  34.040	   56.165	   91.431	  111.925	  	 
   22.00	    29.00	  29.767	   48.763	   82.569	   97.930	  	 
   22.50	    29.00	  24.742	   40.854	   69.889	   84.592	  	 
   23.00	    29.00	  22.668	   35.745	   61.755	   78.695	  	 
   23.50	    29.00	  24.295	   38.357	   62.520	   79.103	  	 
    0.00	    31.00	  24.417	   37.363	   63.196	   79.048	  	 
    0.50	    31.00	  24.918	   35.773	   60.986	   76.649	  	 
    1.00	    31.00	  25.805	   35.874	   59.608	   74.749	  	 
    1.50	    31.00	  24.360	   36.001	   59.569	   75.548	  	 
    2.00	    31.00	  23.540	   37.069	   62.719	   79.062	  	 
    2.50	    31.00	  23.070	   37.717	   64.982	   81.933	  	 
    3.00	    31.00	  21.943	   36.371	   63.632	   80.149	  	 
    3.50	    31.00	  21.541	   36.598	   63.707	   78.350	  	 
    4.00	    31.00	  21.733	   38.350	   65.184	   78.770	  	 
    4.50	    31.00	  25.364	   46.343	   76.127	   95.315	  	 
    5.00	    31.00	  29.081	   53.132	   86.419	  107.141	  	 
    5.50	    31.00	  30.281	   52.663	   84.656	  104.981	  	 
    6.00	    31.00	  26.770	   46.924	   80.037	   98.670	  	 
    6.50	    31.00	  24.289	   44.201	   74.856	   91.628	  	 
    7.00	    31.00	  22.411	   39.505	   68.940	   82.634	  	 
    7.50	    31.00	  21.001	   34.135	   61.261	   74.080	  	 
    8.00	    31.00	  18.738	   29.379	   51.551	   63.761	  	 
    8.50	    31.00	  16.200	   24.145	   42.774	   52.270	  	 
    9.00	    31.00	  13.559	   19.400	   36.000	   44.072	  	 
    9.50	    31.00	  12.763	   18.163	   33.540	   41.651	  	 
   10.00	    31.00	  14.069	   20.057	   36.390	   44.606	  	 
   10.50	    31.00	  15.397	   22.996	   40.431	   49.091	  	 
   11.00	    31.00	  15.915	   23.856	   42.370	   51.738	  	 
   11.50	    31.00	  18.081	   25.450	   45.159	   56.171	  	 
   12.00	    31.00	  18.780	   26.617	   46.669	   58.329	  	 
   12.50	    31.00	  17.945	   25.752	   46.867	   58.420	  	 
   13.00	    31.00	  18.853	   28.150	   50.557	   61.737	  	 
   13.50	    31.00	  19.296	   30.765	   53.594	   66.074	  	 
   14.00	    31.00	  19.728	   32.484	   56.561	   71.048	  	 
   14.50	    31.00	  19.571	   33.094	   59.101	   74.091	  	 
   15.00	    31.00	  20.515	   35.397	   63.116	   78.147	  	 
   15.50	    31.00	  21.017	   37.107	   65.859	   81.504	  	 
   16.00	    31.00	  22.204	   39.755	   69.224	   85.144	  	 
   16.50	    31.00	  22.373	   41.693	   71.296	   87.770	  	 
   17.00	    31.00	  23.749	   43.649	   74.813	   90.908	  	 
   17.50	    31.00	  24.811	   46.363	   78.384	   96.939	  	 
   18.00	    31.00	  27.337	   52.149	   86.981	  106.908	  	 
   18.50	    31.00	  32.609	   61.511	   98.561	  121.943	  	 
   19.00	    31.00	  36.922	   65.925	  105.088	  130.262	  	 
   19.50	    31.00	  40.679	   68.977	  111.945	  135.218	  	 
   20.00	    31.00	  44.671	   79.326	  120.110	  138.671	  	 
   20.50	    31.00	  43.196	   75.499	  113.038	  133.120	  	 
   21.00	    31.00	  39.353	   70.062	  103.803	  127.852	  	 
   21.50	    31.00	  34.245	   56.475	   90.760	  112.565	  	 
   22.00	    31.00	  30.774	   48.759	   83.163	   96.752	  	 
   22.50	    31.00	  25.048	   40.829	   70.659	   85.903	  	 
   23.00	    31.00	  23.448	   37.351	   63.176	   81.761	  	 
   23.50	    31.00	  24.793	   38.124	   63.749	   81.291	  	 
    0.00	    33.00	  26.390	   39.607	   67.104	   81.394	  	 
    0.50	    33.00	  25.476	   38.272	   64.449	   78.902	  	 
    1.00	    33.00	  26.039	   37.395	   62.960	   76.352	  	 
    1.50	    33.00	  26.141	   37.496	   62.141	   77.192	  	 
    2.00	    33.00	  24.585	   38.624	   64.747	   79.965	  	 
    2.50	    33.00	  24.884	   40.133	   67.684	   84.062	  	 
    3.00	    33.00	  23.513	   39.183	   66.433	   80.983	  	 
    3.50	    33.00	  23.126	   38.627	   66.942	   80.785	  	 
    4.00	    33.00	  23.729	   39.380	   67.930	   81.374	  	 
    4.50	    33.00	  27.156	   47.539	   79.821	   97.806	  	 
    5.00	    33.00	  30.006	   53.654	   88.459	  108.032	  	 
    5.50	    33.00	  29.959	   51.253	   84.006	  103.209	  	 
    6.00	    33.00	  27.457	   46.500	   79.553	   99.018	  	 
    6.50	    33.00	  24.558	   43.675	   73.801	   91.106	  	 
    7.00	    33.00	  23.094	   39.502	   68.530	   82.903	  	 
    7.50	    33.00	  21.592	   34.105	   61.207	   74.456	  	 
    8.00	    33.00	  18.853	   28.918	   51.093	   63.939	  	 
    8.50	    33.00	  15.788	   23.569	   42.082	   51.928	  	 
    9.00	    33.00	  13.472	   19.133	   35.659	   44.205	  	 
    9.50	    33.00	  12.831	   18.040	   33.266	   41.966	  	 
   10.00	    33.00	  13.764	   19.254	   35.836	   44.097	  	 
   10.50	    33.00	  15.429	   22.514	   39.539	   47.963	  	 
   11.00	    33.00	  16.299	   23.970	   42.477	   51.575	  	 
   11.50	    33.00	  18.433	   25.689	   45.421	   56.690	  	 
   12.00	    33.00	  18.348	   26.346	   46.925	   58.180	  	 
   12.50	    33.00	  18.202	   25.945	   46.280	   57.720	  	 
   13.00	    33.00	  18.443	   27.111	   48.841	   59.897	  	 
   13.50	    33.00	  18.832	   29.743	   52.723	   64.271	  	 
   14.00	    33.00	  19.555	   31.615	   55.432	   68.909	  	 
   14.50	    33.00	  19.803	   32.572	   56.883	   71.858	  	 
   15.00	    33.00	  20.259	   33.645	   58.991	   74.064	  	 
   15.50	    33.00	  20.672	   35.544	   62.841	   77.145	  	 
   16.00	    33.00	  22.295	   38.848	   66.602	   80.584	  	 
   16.50	    33.00	  22.538	   39.991	   66.952	   82.922	  	 
   17.00	    33.00	  23.352	   40.684	   68.383	   84.834	  	 
   17.50	    33.00	  23.807	   42.883	   72.819	   90.691	  	 
   18.00	    33.00	  26.677	   48.973	   82.409	  100.451	  	 
   18.50	    33.00	  31.163	   58.177	   93.750	  116.381	  	 
   19.00	    33.00	  35.319	   61.085	   97.914	  122.845	  	 
   19.50	    33.00	  38.554	   63.330	  101.178	  126.108	  	 
   20.00	    33.00	  42.124	   68.574	  112.306	  136.066	  	 
   20.50	    33.00	  43.852	   71.877	  105.634	  124.070	  	 
   21.00	    33.00	  39.263	   71.352	  102.250	  122.842	  	 
   21.50	    33.00	  35.504	   58.932	   90.657	  111.646	  	 
   22.00	    33.00	  32.549	   49.337	   82.602	   97.542	  	 
   22.50	    33.00	  26.140	   42.089	   71.738	   86.049	  	 
   23.00	    33.00	  24.488	   39.385	   67.280	   85.945	  	 
   23.50	    33.00	  29.569	   39.622	   66.823	   86.769	  	 
    0.00	    35.00	  26.701	   39.997	   67.673	   80.575	  	 
    0.50	    35.00	  25.074	   39.383	   65.375	   79.448	  	 
    1.00	    35.00	  25.183	   38.134	   64.113	   77.247	  	 
    1.50	    35.00	  26.199	   39.145	   63.386	   77.810	  	 
    2.00	    35.00	  25.143	   40.593	   66.948	   82.378	  	 
    2.50	    35.00	  25.627	   43.038	   70.224	   86.484	  	 
    3.00	    35.00	  24.801	   41.401	   69.075	   84.166	  	 
    3.50	    35.00	  25.032	   41.002	   70.402	   85.202	  	 
    4.00	    35.00	  25.538	   41.544	   71.448	   85.908	  	 
    4.50	    35.00	  29.484	   50.273	   84.232	  101.222	  	 
    5.00	    35.00	  31.758	   55.838	   92.167	  109.496	  	 
    5.50	    35.00	  30.451	   51.251	   85.280	  102.095	  	 
    6.00	    35.00	  28.244	   46.533	   79.182	   98.123	  	 
    6.50	    35.00	  25.452	   43.243	   73.275	   90.204	  	 
    7.00	    35.00	  23.790	   39.560	   68.199	   83.029	  	 
    7.50	    35.00	  22.056	   34.540	   61.377	   74.598	  	 
    8.00	    35.00	  19.040	   29.447	   51.976	   64.195	  	 
    8.50	    35.00	  15.954	   23.838	   42.490	   51.856	  	 
    9.00	    35.00	  13.587	   19.659	   36.240	   44.272	  	 
    9.50	    35.00	  12.968	   18.382	   33.906	   42.123	  	 
   10.00	    35.00	  13.290	   19.059	   35.458	   43.245	  	 
   10.50	    35.00	  15.052	   21.692	   38.801	   46.645	  	 
   11.00	    35.00	  16.123	   23.839	   42.115	   50.464	  	 
   11.50	    35.00	  17.697	   25.675	   45.278	   56.366	  	 
   12.00	    35.00	  17.542	   25.970	   46.536	   57.419	  	 
   12.50	    35.00	  17.836	   25.920	   45.919	   57.321	  	 
   13.00	    35.00	  17.446	   26.359	   47.564	   58.077	  	 
   13.50	    35.00	  17.842	   28.577	   51.405	   61.871	  	 
   14.00	    35.00	  18.728	   30.295	   54.019	   65.654	  	 
   14.50	    35.00	  19.564	   31.634	   55.482	   69.288	  	 
   15.00	    35.00	  20.362	   32.789	   56.792	   71.383	  	 
   15.50	    35.00	  20.546	   34.609	   60.679	   74.115	  	 
   16.00	    35.00	  21.970	   37.292	   64.470	   77.077	  	 
   16.50	    35.00	  22.121	   37.620	   64.925	   79.352	  	 
   17.00	    35.00	  23.006	   38.335	   65.628	   80.682	  	 
   17.50	    35.00	  23.631	   40.228	   69.099	   86.336	  	 
   18.00	    35.00	  26.168	   45.858	   78.620	   96.161	  	 
   18.50	    35.00	  29.849	   53.425	   89.825	  110.855	  	 
   19.00	    35.00	  34.509	   56.565	   92.697	  117.209	  	 
   19.50	    35.00	  37.008	   59.495	   94.266	  120.912	  	 
   20.00	    35.00	  48.412	   74.761	  116.538	  144.368	  	 
   20.50	    35.00	  42.272	   68.679	  100.249	  118.218	  	 
   21.00	    35.00	  40.103	   74.758	  100.960	  119.884	  	 
   21.50	    35.00	  36.531	   59.897	   93.116	  112.358	  	 
   22.00	    35.00	  33.338	   51.726	   84.670	   99.838	  	 
   22.50	    35.00	  28.936	   44.270	   74.404	   89.212	  	 
   23.00	    35.00	  25.364	   40.572	   70.606	   88.041	  	 
   23.50	    35.00	  30.289	   40.065	   70.333	   87.650	  	 
    0.00	    37.00	  24.327	   37.626	   64.222	   77.152	  	 
    0.50	    37.00	  23.768	   37.131	   63.599	   77.370	  	 
    1.00	    37.00	  23.600	   37.183	   63.117	   75.302	  	 
    1.50	    37.00	  24.753	   39.255	   64.005	   77.802	  	 
    2.00	    37.00	  24.579	   41.201	   67.555	   86.542	  	 
    2.50	    37.00	  24.957	   45.793	   71.724	   90.893	  	 
    3.00	    37.00	  24.777	   42.044	   70.847	   88.886	  	 
    3.50	    37.00	  25.721	   43.066	   74.139	   90.861	  	 
    4.00	    37.00	  26.542	   43.945	   75.172	   91.115	  	 
    4.50	    37.00	  30.065	   52.119	   87.181	  105.356	  	 
    5.00	    37.00	  32.501	   56.872	   93.601	  112.042	  	 
    5.50	    37.00	  30.310	   50.780	   85.599	  101.887	  	 
    6.00	    37.00	  27.517	   45.803	   78.022	   95.664	  	 
    6.50	    37.00	  25.246	   42.244	   71.993	   88.420	  	 
    7.00	    37.00	  22.814	   38.716	   66.900	   81.777	  	 
    7.50	    37.00	  21.412	   34.661	   60.447	   73.635	  	 
    8.00	    37.00	  18.771	   29.886	   52.477	   63.602	  	 
    8.50	    37.00	  15.454	   23.958	   42.123	   51.416	  	 
    9.00	    37.00	  13.405	   20.468	   36.638	   44.320	  	 
    9.50	    37.00	  12.550	   18.946	   34.068	   41.519	  	 
   10.00	    37.00	  12.342	   19.013	   34.063	   41.818	  	 
   10.50	    37.00	  13.604	   20.483	   36.751	   44.852	  	 
   11.00	    37.00	  14.768	   22.806	   40.096	   48.619	  	 
   11.50	    37.00	  16.468	   25.178	   44.170	   53.704	  	 
   12.00	    37.00	  16.665	   25.709	   45.372	   55.576	  	 
   12.50	    37.00	  16.714	   25.530	   45.435	   56.171	  	 
   13.00	    37.00	  16.279	   25.660	   46.020	   55.866	  	 
   13.50	    37.00	  16.402	   27.024	   48.707	   58.646	  	 
   14.00	    37.00	  17.143	   28.441	   51.106	   60.866	  	 
   14.50	    37.00	  18.142	   30.283	   52.908	   65.139	  	 
   15.00	    37.00	  18.744	   31.531	   55.148	   68.984	  	 
   15.50	    37.00	  19.337	   33.241	   58.347	   72.045	  	 
   16.00	    37.00	  20.332	   35.112	   61.877	   75.045	  	 
   16.50	    37.00	  20.921	   35.719	   63.985	   77.234	  	 
   17.00	    37.00	  21.844	   36.671	   65.281	   79.319	  	 
   17.50	    37.00	  22.772	   38.668	   67.930	   84.638	  	 
   18.00	    37.00	  25.262	   43.761	   75.953	   92.991	  	 
   18.50	    37.00	  28.754	   48.948	   85.501	  106.060	  	 
   19.00	    37.00	  33.010	   53.095	   91.581	  114.126	  	 
   19.50	    37.00	  36.921	   56.632	   96.262	  122.076	  	 
   20.00	    37.00	  68.729	  107.298	  149.987	  170.789	  	 
   20.50	    37.00	  44.579	   69.964	  103.070	  117.422	  	 
   21.00	    37.00	  41.927	   75.325	  102.221	  118.571	  	 
   21.50	    37.00	  38.186	   59.407	   96.561	  116.548	  	 
   22.00	    37.00	  34.103	   52.231	   88.044	  102.432	  	 
   22.50	    37.00	  28.345	   45.753	   77.204	   93.431	  	 
   23.00	    37.00	  25.268	   40.838	   70.434	   89.097	  	 
   23.50	    37.00	  26.400	   39.258	   71.810	   84.057	  	 
    0.00	    39.00	  23.757	   37.644	   64.154	   76.469	  	 
    0.50	    39.00	  23.428	   37.558	   64.613	   77.310	  	 
    1.00	    39.00	  24.122	   38.522	   65.131	   76.135	  	 
    1.50	    39.00	  25.413	   40.730	   67.472	   80.674	  	 
    2.00	    39.00	  26.125	   42.761	   71.897	   90.339	  	 
    2.50	    39.00	  26.131	   46.887	   75.667	   94.535	  	 
    3.00	    39.00	  25.955	   43.655	   76.136	   94.580	  	 
    3.50	    39.00	  27.386	   46.075	   80.757	   97.895	  	 
    4.00	    39.00	  27.999	   47.079	   80.109	   97.708	  	 
    4.50	    39.00	  30.393	   53.497	   90.817	  109.354	  	 
    5.00	    39.00	  32.467	   56.659	   94.921	  114.932	  	 
    5.50	    39.00	  29.655	   50.061	   85.071	  102.379	  	 
    6.00	    39.00	  26.426	   44.905	   77.775	   94.232	  	 
    6.50	    39.00	  24.364	   41.811	   71.865	   88.150	  	 
    7.00	    39.00	  22.529	   38.075	   66.781	   80.728	  	 
    7.50	    39.00	  20.858	   34.281	   60.413	   73.713	  	 
    8.00	    39.00	  18.175	   29.908	   52.351	   63.500	  	 
    8.50	    39.00	  14.963	   24.027	   42.510	   52.220	  	 
    9.00	    39.00	  13.290	   20.677	   37.027	   44.991	  	 
    9.50	    39.00	  12.468	   19.219	   34.689	   41.755	  	 
   10.00	    39.00	  12.252	   19.166	   33.934	   41.438	  	 
   10.50	    39.00	  12.676	   19.881	   36.099	   43.632	  	 
   11.00	    39.00	  14.224	   22.129	   39.264	   47.401	  	 
   11.50	    39.00	  15.806	   24.883	   43.885	   52.322	  	 
   12.00	    39.00	  16.221	   25.774	   45.425	   54.733	  	 
   12.50	    39.00	  16.161	   25.807	   45.663	   55.651	  	 
   13.00	    39.00	  15.974	   25.869	   45.967	   55.546	  	 
   13.50	    39.00	  15.631	   26.466	   47.362	   56.591	  	 
   14.00	    39.00	  16.299	   27.263	   49.034	   57.805	  	 
   14.50	    39.00	  17.283	   29.176	   52.056	   62.413	  	 
   15.00	    39.00	  17.812	   30.652	   54.392	   66.836	  	 
   15.50	    39.00	  18.556	   32.442	   57.348	   70.171	  	 
   16.00	    39.00	  19.541	   34.101	   59.475	   73.053	  	 
   16.50	    39.00	  20.226	   34.722	   62.720	   75.691	  	 
   17.00	    39.00	  21.144	   35.618	   65.015	   78.261	  	 
   17.50	    39.00	  22.758	   38.339	   68.129	   83.851	  	 
   18.00	    39.00	  24.843	   42.840	   73.745	   91.970	  	 
   18.50	    39.00	  26.694	   46.510	   80.643	  102.793	  	 
   19.00	    39.00	  31.667	   51.021	   91.963	  113.905	  	 
   19.50	    39.00	  37.234	   62.483	  102.444	  126.473	  	 
   20.00	    39.00	 103.456	  136.551	  174.541	  191.907	  	 
   20.50	    39.00	  48.413	   71.026	  108.071	  119.483	  	 
   21.00	    39.00	  44.494	   74.947	  103.121	  118.929	  	 
   21.50	    39.00	  39.512	   60.833	   97.170	  116.716	  	 
   22.00	    39.00	  35.242	   53.107	   89.375	  104.823	  	 
   22.50	    39.00	  28.550	   46.914	   79.670	   96.132	  	 
   23.00	    39.00	  25.509	   42.389	   71.920	   90.270	  	 
   23.50	    39.00	  24.816	   40.743	   71.956	   84.373	  	 
    0.00	    41.00	  24.787	   40.169	   68.520	   81.598	  	 
    0.50	    41.00	  24.584	   40.372	   67.920	   80.540	  	 
    1.00	    41.00	  26.009	   41.333	   70.177	   81.691	  	 
    1.50	    41.00	  26.310	   43.023	   71.813	   87.043	  	 
    2.00	    41.00	  28.692	   45.353	   76.184	   92.850	  	 
    2.50	    41.00	  28.108	   46.850	   81.021	   98.064	  	 
    3.00	    41.00	  27.974	   46.760	   82.632	  100.209	  	 
    3.50	    41.00	  30.287	   51.271	   88.236	  105.596	  	 
    4.00	    41.00	  30.100	   51.735	   87.244	  105.876	  	 
    4.50	    41.00	  31.590	   56.122	   95.958	  115.364	  	 
    5.00	    41.00	  32.542	   57.715	   97.386	  117.356	  	 
    5.50	    41.00	  29.474	   50.895	   86.352	  104.217	  	 
    6.00	    41.00	  26.865	   45.499	   78.448	   94.746	  	 
    6.50	    41.00	  24.846	   42.192	   73.115	   88.021	  	 
    7.00	    41.00	  23.139	   38.693	   68.070	   81.299	  	 
    7.50	    41.00	  21.382	   34.938	   61.873	   73.964	  	 
    8.00	    41.00	  18.446	   29.929	   52.974	   63.941	  	 
    8.50	    41.00	  15.179	   24.672	   44.563	   53.567	  	 
    9.00	    41.00	  13.871	   20.968	   38.264	   45.972	  	 
    9.50	    41.00	  13.075	   19.483	   35.976	   42.710	  	 
   10.00	    41.00	  12.725	   19.242	   35.219	   42.492	  	 
   10.50	    41.00	  12.859	   19.810	   36.776	   43.685	  	 
   11.00	    41.00	  14.319	   22.195	   39.968	   47.230	  	 
   11.50	    41.00	  15.592	   24.902	   44.193	   52.225	  	 
   12.00	    41.00	  16.231	   25.804	   46.111	   54.808	  	 
   12.50	    41.00	  16.361	   26.303	   46.510	   56.014	  	 
   13.00	    41.00	  16.460	   26.530	   46.953	   56.576	  	 
   13.50	    41.00	  15.735	   26.664	   47.410	   56.372	  	 
   14.00	    41.00	  16.087	   26.537	   47.614	   56.640	  	 
   14.50	    41.00	  17.071	   28.834	   51.824	   61.143	  	 
   15.00	    41.00	  18.057	   30.608	   54.535	   65.663	  	 
   15.50	    41.00	  18.629	   32.213	   57.023	   69.195	  	 
   16.00	    41.00	  19.219	   33.415	   57.907	   70.943	  	 
   16.50	    41.00	  19.969	   34.608	   61.199	   73.973	  	 
   17.00	    41.00	  20.911	   36.154	   64.229	   77.146	  	 
   17.50	    41.00	  22.568	   39.535	   69.347	   83.869	  	 
   18.00	    41.00	  24.423	   42.951	   73.504	   90.664	  	 
   18.50	    41.00	  26.069	   46.259	   79.591	  101.837	  	 
   19.00	    41.00	  31.821	   53.280	   94.570	  115.602	  	 
   19.50	    41.00	  41.565	   66.775	  108.342	  128.895	  	 
   20.00	    41.00	 118.163	  142.884	  186.234	  200.858	  	 
   20.50	    41.00	  44.266	   72.245	  108.288	  120.710	  	 
   21.00	    41.00	  44.764	   71.653	   99.777	  116.390	  	 
   21.50	    41.00	  38.962	   61.887	   97.603	  114.283	  	 
   22.00	    41.00	  36.171	   54.503	   90.798	  109.047	  	 
   22.50	    41.00	  30.073	   49.014	   82.237	   98.895	  	 
   23.00	    41.00	  27.383	   44.474	   75.462	   92.995	  	 
   23.50	    41.00	  24.844	   44.576	   72.466	   87.708	  	 
    0.00	    43.00	  26.810	   42.673	   73.214	   87.642	  	 
    0.50	    43.00	  26.081	   42.252	   72.243	   87.078	  	 
    1.00	    43.00	  27.296	   42.951	   75.146	   88.682	  	 
    1.50	    43.00	  28.245	   44.861	   76.827	   92.420	  	 
    2.00	    43.00	  30.033	   47.539	   79.826	   96.874	  	 
    2.50	    43.00	  29.871	   49.425	   86.332	  102.338	  	 
    3.00	    43.00	  30.431	   51.468	   88.534	  106.325	  	 
    3.50	    43.00	  31.740	   55.533	   94.517	  112.667	  	 
    4.00	    43.00	  33.228	   56.838	   95.899	  115.426	  	 
    4.50	    43.00	  34.840	   61.300	  102.912	  122.840	  	 
    5.00	    43.00	  35.194	   61.599	  102.472	  122.347	  	 
    5.50	    43.00	  30.227	   52.437	   90.125	  106.999	  	 
    6.00	    43.00	  27.789	   46.498	   80.513	   98.377	  	 
    6.50	    43.00	  25.533	   43.124	   74.680	   90.151	  	 
    7.00	    43.00	  23.257	   39.625	   69.220	   82.461	  	 
    7.50	    43.00	  21.823	   35.862	   63.724	   75.913	  	 
    8.00	    43.00	  18.732	   30.218	   54.679	   64.884	  	 
    8.50	    43.00	  16.471	   25.812	   46.171	   55.494	  	 
    9.00	    43.00	  14.562	   21.989	   39.522	   47.527	  	 
    9.50	    43.00	  13.561	   20.208	   36.831	   44.132	  	 
   10.00	    43.00	  13.010	   19.407	   35.846	   43.429	  	 
   10.50	    43.00	  13.342	   20.372	   37.342	   44.527	  	 
   11.00	    43.00	  14.577	   22.736	   40.163	   48.070	  	 
   11.50	    43.00	  15.751	   25.134	   44.106	   52.562	  	 
   12.00	    43.00	  16.803	   25.890	   46.221	   55.410	  	 
   12.50	    43.00	  16.731	   26.058	   46.542	   56.308	  	 
   13.00	    43.00	  17.112	   26.599	   47.284	   57.089	  	 
   13.50	    43.00	  16.266	   26.516	   47.379	   56.750	  	 
   14.00	    43.00	  16.017	   25.949	   47.163	   56.836	  	 
   14.50	    43.00	  17.052	   28.285	   51.176	   61.000	  	 
   15.00	    43.00	  17.908	   30.366	   54.241	   65.168	  	 
   15.50	    43.00	  18.645	   31.678	   56.380	   68.422	  	 
   16.00	    43.00	  18.801	   32.371	   56.843	   70.136	  	 
   16.50	    43.00	  19.110	   33.355	   59.264	   71.183	  	 
   17.00	    43.00	  20.609	   35.661	   62.941	   74.837	  	 
   17.50	    43.00	  22.149	   39.629	   68.838	   80.738	  	 
   18.00	    43.00	  23.977	   42.273	   73.001	   87.425	  	 
   18.50	    43.00	  26.043	   45.380	   78.979	   98.455	  	 
   19.00	    43.00	  32.605	   55.705	   95.446	  114.679	  	 
   19.50	    43.00	  40.550	   65.539	  107.279	  126.409	  	 
   20.00	    43.00	  77.440	  112.021	  165.433	  185.700	  	 
   20.50	    43.00	  44.557	   69.803	  106.538	  118.644	  	 
   21.00	    43.00	  41.839	   70.217	   99.743	  114.936	  	 
   21.50	    43.00	  39.309	   64.826	  100.121	  115.379	  	 
   22.00	    43.00	  38.970	   58.252	   96.178	  112.629	  	 
   22.50	    43.00	  31.120	   51.437	   85.499	  101.900	  	 
   23.00	    43.00	  28.934	   47.556	   80.285	   98.605	  	 
   23.50	    43.00	  30.119	   46.370	   78.437	   95.199	  	 
    0.00	    45.00	  28.231	   44.193	   76.824	   92.703	  	 
    0.50	    45.00	  26.530	   43.489	   75.749	   92.669	  	 
    1.00	    45.00	  27.815	   44.751	   79.055	   94.184	  	 
    1.50	    45.00	  29.098	   46.669	   80.884	   96.122	  	 
    2.00	    45.00	  31.135	   48.520	   81.121	  100.210	  	 
    2.50	    45.00	  30.814	   51.030	   88.364	  105.399	  	 
    3.00	    45.00	  31.490	   54.107	   92.151	  110.615	  	 
    3.50	    45.00	  32.418	   57.203	   98.865	  117.988	  	 
    4.00	    45.00	  35.854	   61.135	  103.300	  125.231	  	 
    4.50	    45.00	  38.901	   65.444	  107.070	  129.188	  	 
    5.00	    45.00	  37.226	   64.097	  105.848	  126.991	  	 
    5.50	    45.00	  30.567	   53.164	   92.635	  109.981	  	 
    6.00	    45.00	  28.107	   46.723	   81.602	  102.186	  	 
    6.50	    45.00	  25.514	   42.807	   74.808	   91.727	  	 
    7.00	    45.00	  23.107	   39.036	   68.604	   83.832	  	 
    7.50	    45.00	  21.784	   36.128	   64.281	   77.452	  	 
    8.00	    45.00	  19.056	   30.303	   56.275	   66.440	  	 
    8.50	    45.00	  17.424	   26.724	   46.567	   56.915	  	 
    9.00	    45.00	  14.905	   22.507	   40.098	   49.056	  	 
    9.50	    45.00	  13.733	   20.966	   37.007	   45.442	  	 
   10.00	    45.00	  13.205	   19.495	   35.634	   44.463	  	 
   10.50	    45.00	  14.043	   20.726	   37.084	   45.532	  	 
   11.00	    45.00	  14.684	   22.422	   39.234	   48.562	  	 
   11.50	    45.00	  16.108	   24.562	   43.076	   52.601	  	 
   12.00	    45.00	  17.355	   26.120	   45.645	   55.761	  	 
   12.50	    45.00	  17.131	   25.521	   46.069	   56.626	  	 
   13.00	    45.00	  17.474	   26.431	   46.726	   57.399	  	 
   13.50	    45.00	  16.737	   26.227	   47.066	   57.494	  	 
   14.00	    45.00	  15.947	   25.498	   46.612	   57.510	  	 
   14.50	    45.00	  17.019	   27.282	   49.626	   60.856	  	 
   15.00	    45.00	  17.673	   28.621	   52.168	   64.397	  	 
   15.50	    45.00	  18.083	   29.372	   53.911	   66.855	  	 
   16.00	    45.00	  18.231	   30.248	   54.996	   69.090	  	 
   16.50	    45.00	  18.286	   31.654	   57.329	   68.257	  	 
   17.00	    45.00	  20.403	   33.841	   60.309	   72.146	  	 
   17.50	    45.00	  22.216	   37.148	   65.967	   76.633	  	 
   18.00	    45.00	  23.960	   40.441	   71.362	   84.168	  	 
   18.50	    45.00	  25.961	   44.480	   79.646	   94.284	  	 
   19.00	    45.00	  32.873	   54.208	   92.553	  110.535	  	 
   19.50	    45.00	  36.845	   60.901	  100.712	  120.798	  	 
   20.00	    45.00	  43.444	   76.734	  126.346	  149.531	  	 
   20.50	    45.00	  45.290	   70.797	  104.080	  119.099	  	 
   21.00	    45.00	  41.795	   71.312	  100.673	  116.655	  	 
   21.50	    45.00	  40.584	   66.963	  103.923	  119.366	  	 
   22.00	    45.00	  39.699	   61.240	   99.926	  116.991	  	 
   22.50	    45.00	  31.507	   52.262	   88.295	  105.922	  	 
   23.00	    45.00	  29.031	   49.244	   83.434	  103.091	  	 
   23.50	    45.00	  35.467	   46.958	   86.794	  105.036	  	 
    0.00	    47.00	  28.603	   45.730	   77.460	   95.154	  	 
    0.50	    47.00	  26.437	   44.257	   76.204	   94.194	  	 
    1.00	    47.00	  27.681	   44.991	   77.344	   95.257	  	 
    1.50	    47.00	  28.992	   47.113	   80.052	   97.569	  	 
    2.00	    47.00	  29.754	   47.254	   79.592	  100.740	  	 
    2.50	    47.00	  30.657	   49.864	   86.981	  106.928	  	 
    3.00	    47.00	  31.672	   53.441	   91.340	  112.528	  	 
    3.50	    47.00	  33.651	   57.496	   98.221	  121.610	  	 
    4.00	    47.00	  37.060	   63.061	  104.232	  127.963	  	 
    4.50	    47.00	  38.627	   64.333	  106.400	  130.822	  	 
    5.00	    47.00	  36.426	   62.609	  103.434	  126.825	  	 
    5.50	    47.00	  30.260	   52.083	   90.370	  110.850	  	 
    6.00	    47.00	  27.458	   45.908	   79.725	  100.770	  	 
    6.50	    47.00	  25.134	   41.961	   72.995	   91.009	  	 
    7.00	    47.00	  23.273	   37.305	   66.794	   83.577	  	 
    7.50	    47.00	  21.449	   34.941	   61.886	   77.103	  	 
    8.00	    47.00	  19.018	   30.636	   56.222	   67.672	  	 
    8.50	    47.00	  17.292	   26.652	   47.312	   58.483	  	 
    9.00	    47.00	  14.551	   22.281	   40.647	   50.638	  	 
    9.50	    47.00	  13.425	   20.095	   37.105	   46.626	  	 
   10.00	    47.00	  12.927	   19.094	   35.827	   44.986	  	 
   10.50	    47.00	  13.550	   20.334	   37.000	   46.604	  	 
   11.00	    47.00	  14.254	   21.275	   38.830	   48.806	  	 
   11.50	    47.00	  15.339	   23.592	   41.984	   52.565	  	 
   12.00	    47.00	  16.518	   25.713	   44.881	   55.735	  	 
   12.50	    47.00	  16.352	   25.087	   45.236	   56.573	  	 
   13.00	    47.00	  16.747	   25.709	   45.850	   57.457	  	 
   13.50	    47.00	  16.541	   25.927	   46.614	   58.148	  	 
   14.00	    47.00	  15.881	   25.455	   46.246	   58.185	  	 
   14.50	    47.00	  16.606	   26.554	   48.142	   60.334	  	 
   15.00	    47.00	  16.831	   27.259	   49.924	   63.189	  	 
   15.50	    47.00	  17.096	   27.692	   51.584	   64.863	  	 
   16.00	    47.00	  17.652	   29.492	   53.305	   67.767	  	 
   16.50	    47.00	  18.100	   31.330	   56.038	   68.888	  	 
   17.00	    47.00	  19.482	   33.027	   58.188	   73.708	  	 
   17.50	    47.00	  21.383	   35.870	   63.534	   78.176	  	 
   18.00	    47.00	  23.018	   39.843	   69.723	   86.580	  	 
   18.50	    47.00	  25.332	   45.322	   79.604	   97.408	  	 
   19.00	    47.00	  31.456	   53.407	   91.495	  113.471	  	 
   19.50	    47.00	  35.089	   57.857	   96.845	  121.132	  	 
   20.00	    47.00	  44.141	   67.777	  106.878	  135.149	  	 
   20.50	    47.00	  44.523	   70.157	  105.389	  127.792	  	 
   21.00	    47.00	  46.523	   78.648	  107.992	  126.631	  	 
   21.50	    47.00	  43.345	   69.609	  106.864	  126.775	  	 
   22.00	    47.00	  39.224	   62.665	  100.625	  120.453	  	 
   22.50	    47.00	  31.285	   52.083	   88.152	  108.434	  	 
   23.00	    47.00	  28.879	   48.621	   81.878	  103.784	  	 
   23.50	    47.00	  33.691	   48.710	   84.519	  103.651	  	 
    0.00	    49.00	  29.136	   46.285	   77.669	   98.242	  	 
    0.50	    49.00	  27.592	   46.421	   76.367	   97.263	  	 
    1.00	    49.00	  28.900	   46.903	   78.390	   97.594	  	 
    1.50	    49.00	  30.113	   48.854	   78.823	   99.862	  	 
    2.00	    49.00	  29.933	   48.816	   79.980	  102.642	  	 
    2.50	    49.00	  30.921	   50.684	   86.521	  108.718	  	 
    3.00	    49.00	  32.186	   54.584	   91.612	  114.421	  	 
    3.50	    49.00	  35.631	   59.271	   97.687	  124.299	  	 
    4.00	    49.00	  38.277	   63.984	  104.179	  128.674	  	 
    4.50	    49.00	  37.704	   62.152	  103.777	  128.619	  	 
    5.00	    49.00	  34.777	   61.140	  100.080	  125.196	  	 
    5.50	    49.00	  29.688	   52.005	   87.553	  110.236	  	 
    6.00	    49.00	  27.117	   45.814	   78.074	   99.188	  	 
    6.50	    49.00	  25.157	   42.198	   71.791	   90.028	  	 
    7.00	    49.00	  23.326	   37.454	   65.279	   83.236	  	 
    7.50	    49.00	  21.688	   34.868	   60.607	   77.554	  	 
    8.00	    49.00	  19.230	   31.092	   55.034	   69.242	  	 
    8.50	    49.00	  17.226	   27.195	   48.173	   60.463	  	 
    9.00	    49.00	  14.629	   22.969	   41.455	   52.541	  	 
    9.50	    49.00	  13.576	   20.345	   37.908	   48.483	  	 
   10.00	    49.00	  12.910	   19.471	   36.429	   46.310	  	 
   10.50	    49.00	  13.568	   20.493	   37.438	   47.628	  	 
   11.00	    49.00	  13.704	   21.417	   38.637	   49.513	  	 
   11.50	    49.00	  14.855	   23.581	   41.434	   52.650	  	 
   12.00	    49.00	  15.923	   25.498	   44.733	   55.977	  	 
   12.50	    49.00	  16.147	   25.179	   44.838	   56.946	  	 
   13.00	    49.00	  15.938	   25.183	   45.265	   57.657	  	 
   13.50	    49.00	  15.897	   25.919	   46.084	   58.543	  	 
   14.00	    49.00	  16.010	   25.996	   46.326	   58.982	  	 
   14.50	    49.00	  16.402	   26.456	   47.017	   60.200	  	 
   15.00	    49.00	  16.730	   26.908	   48.521	   62.203	  	 
   15.50	    49.00	  16.965	   27.707	   50.537	   64.015	  	 
   16.00	    49.00	  17.299	   30.168	   52.529	   66.860	  	 
   16.50	    49.00	  17.983	   32.046	   55.561	   70.381	  	 
   17.00	    49.00	  19.181	   32.921	   56.728	   75.521	  	 
   17.50	    49.00	  21.080	   35.448	   61.563	   79.585	  	 
   18.00	    49.00	  22.706	   39.536	   69.381	   87.381	  	 
   18.50	    49.00	  26.144	   46.829	   78.846	  100.838	  	 
   19.00	    49.00	  30.999	   54.016	   89.499	  115.060	  	 
   19.50	    49.00	  35.192	   56.440	   93.312	  122.973	  	 
   20.00	    49.00	  49.253	   67.047	   99.732	  128.937	  	 
   20.50	    49.00	  44.306	   73.240	  108.523	  137.816	  	 
   21.00	    49.00	  50.836	   86.145	  117.680	  140.481	  	 
   21.50	    49.00	  47.210	   76.203	  113.754	  135.996	  	 
   22.00	    49.00	  39.893	   65.945	  104.806	  124.885	  	 
   22.50	    49.00	  31.303	   53.877	   87.395	  110.404	  	 
   23.00	    49.00	  29.399	   49.947	   81.651	  105.075	  	 
   23.50	    49.00	  31.112	   51.043	   81.309	  104.080	  	 
    0.00	    51.00	  31.938	   53.705	   89.356	  113.508	  	 
    0.50	    51.00	  31.663	   55.467	   89.368	  114.726	  	 
    1.00	    51.00	  32.252	   55.307	   88.951	  110.761	  	 
    1.50	    51.00	  32.364	   55.239	   87.606	  110.343	  	 
    2.00	    51.00	  32.072	   55.091	   88.298	  110.262	  	 
    2.50	    51.00	  32.181	   56.408	   92.503	  115.512	  	 
    3.00	    51.00	  34.758	   59.546	   98.114	  120.775	  	 
    3.50	    51.00	  38.235	   65.210	  104.603	  130.276	  	 
    4.00	    51.00	  38.682	   65.197	  106.975	  130.194	  	 
    4.50	    51.00	  36.552	   62.231	  102.146	  127.367	  	 
    5.00	    51.00	  33.094	   60.084	   99.809	  124.288	  	 
    5.50	    51.00	  29.747	   53.670	   89.309	  111.954	  	 
    6.00	    51.00	  27.285	   47.753	   81.008	  100.545	  	 
    6.50	    51.00	  25.036	   43.697	   73.217	   92.324	  	 
    7.00	    51.00	  23.280	   39.942	   67.564	   85.532	  	 
    7.50	    51.00	  21.461	   37.054	   62.070	   79.911	  	 
    8.00	    51.00	  19.176	   33.305	   56.450	   71.105	  	 
    8.50	    51.00	  17.636	   30.050	   50.086	   64.376	  	 
    9.00	    51.00	  15.681	   26.615	   44.474	   56.696	  	 
    9.50	    51.00	  14.418	   24.190	   41.026	   52.253	  	 
   10.00	    51.00	  13.354	   22.644	   39.341	   49.085	  	 
   10.50	    51.00	  13.837	   23.132	   39.081	   50.021	  	 
   11.00	    51.00	  14.055	   24.314	   40.763	   51.413	  	 
   11.50	    51.00	  14.851	   26.307	   43.311	   54.347	  	 
   12.00	    51.00	  15.697	   27.242	   45.342	   56.044	  	 
   12.50	    51.00	  15.812	   27.165	   45.686	   57.371	  	 
   13.00	    51.00	  15.485	   26.862	   45.410	   57.660	  	 
   13.50	    51.00	  15.469	   27.260	   45.696	   58.604	  	 
   14.00	    51.00	  16.074	   27.878	   47.436	   59.653	  	 
   14.50	    51.00	  16.212	   27.753	   47.487	   60.834	  	 
   15.00	    51.00	  16.931	   28.950	   49.655	   62.713	  	 
   15.50	    51.00	  17.505	   30.466	   51.990	   65.516	  	 
   16.00	    51.00	  17.628	   32.051	   54.374	   67.691	  	 
   16.50	    51.00	  17.944	   33.219	   55.689	   69.608	  	 
   17.00	    51.00	  18.869	   33.750	   56.192	   71.991	  	 
   17.50	    51.00	  20.405	   35.201	   59.986	   76.204	  	 
   18.00	    51.00	  22.027	   39.013	   67.622	   85.243	  	 
   18.50	    51.00	  25.879	   46.323	   76.689	   98.438	  	 
   19.00	    51.00	  30.365	   52.918	   86.785	  109.389	  	 
   19.50	    51.00	  33.805	   57.005	   92.854	  118.374	  	 
   20.00	    51.00	  35.866	   64.647	  101.543	  127.508	  	 
   20.50	    51.00	  43.365	   74.924	  112.025	  140.337	  	 
   21.00	    51.00	  51.541	   90.617	  127.187	  150.376	  	 
   21.50	    51.00	  52.230	   86.168	  128.014	  148.282	  	 
   22.00	    51.00	  43.669	   72.107	  114.089	  132.365	  	 
   22.50	    51.00	  34.925	   61.238	   94.236	  119.016	  	 
   23.00	    51.00	  31.959	   57.316	   92.082	  117.107	  	 
   23.50	    51.00	  39.044	   59.257	   97.919	  130.172	  	 
    0.00	    53.00	  35.088	   61.742	   99.407	  123.321	  	 
    0.50	    53.00	  35.078	   63.406	  100.834	  126.020	  	 
    1.00	    53.00	  32.910	   59.501	   96.059	  118.562	  	 
    1.50	    53.00	  33.554	   57.254	   93.334	  115.591	  	 
    2.00	    53.00	  33.677	   57.965	   93.321	  114.740	  	 
    2.50	    53.00	  33.437	   60.313	   96.004	  119.285	  	 
    3.00	    53.00	  35.797	   62.565	  100.841	  122.586	  	 
    3.50	    53.00	  39.629	   66.876	  107.374	  130.175	  	 
    4.00	    53.00	  37.254	   63.142	  104.274	  125.140	  	 
    4.50	    53.00	  35.809	   61.343	   98.821	  122.239	  	 
    5.00	    53.00	  32.008	   58.870	   96.894	  119.699	  	 
    5.50	    53.00	  29.934	   53.789	   89.433	  110.674	  	 
    6.00	    53.00	  27.064	   48.384	   81.409	  100.261	  	 
    6.50	    53.00	  24.581	   44.295	   73.281	   92.704	  	 
    7.00	    53.00	  23.281	   40.533	   68.440	   85.428	  	 
    7.50	    53.00	  21.201	   37.635	   62.850	   79.266	  	 
    8.00	    53.00	  19.248	   34.486	   57.503	   72.022	  	 
    8.50	    53.00	  17.833	   31.300	   51.381	   65.406	  	 
    9.00	    53.00	  15.985	   28.028	   46.148	   58.221	  	 
    9.50	    53.00	  14.773	   26.235	   42.837	   54.358	  	 
   10.00	    53.00	  13.705	   24.307	   40.802	   50.592	  	 
   10.50	    53.00	  13.285	   24.009	   39.867	   50.819	  	 
   11.00	    53.00	  13.977	   25.406	   41.427	   51.853	  	 
   11.50	    53.00	  14.423	   26.864	   43.622	   54.113	  	 
   12.00	    53.00	  15.268	   27.513	   45.485	   55.516	  	 
   12.50	    53.00	  15.237	   27.226	   45.251	   55.965	  	 
   13.00	    53.00	  15.183	   27.042	   45.404	   56.816	  	 
   13.50	    53.00	  15.338	   27.321	   45.676	   57.820	  	 
   14.00	    53.00	  15.846	   27.893	   47.251	   59.474	  	 
   14.50	    53.00	  16.230	   28.307	   47.460	   60.710	  	 
   15.00	    53.00	  16.746	   29.787	   50.213	   62.884	  	 
   15.50	    53.00	  17.420	   31.424	   52.426	   65.142	  	 
   16.00	    53.00	  17.554	   32.746	   55.014	   66.894	  	 
   16.50	    53.00	  17.662	   33.508	   55.187	   69.081	  	 
   17.00	    53.00	  18.314	   33.857	   56.274	   71.938	  	 
   17.50	    53.00	  20.071	   34.890	   60.113	   75.175	  	 
   18.00	    53.00	  21.743	   39.405	   67.419	   84.859	  	 
   18.50	    53.00	  25.421	   46.703	   76.835	   97.657	  	 
   19.00	    53.00	  29.951	   52.649	   85.620	  107.587	  	 
   19.50	    53.00	  32.696	   56.983	   91.396	  114.739	  	 
   20.00	    53.00	  35.868	   62.267	   99.878	  126.889	  	 
   20.50	    53.00	  40.086	   71.479	  109.087	  137.510	  	 
   21.00	    53.00	  48.916	   84.615	  124.102	  145.967	  	 
   21.50	    53.00	  52.655	   85.960	  128.554	  147.509	  	 
   22.00	    53.00	  44.057	   74.628	  116.776	  134.726	  	 
   22.50	    53.00	  37.705	   65.277	  100.213	  125.070	  	 
   23.00	    53.00	  34.393	   63.876	  102.409	  133.335	  	 
   23.50	    53.00	  39.372	   81.274	  138.789	  171.182	  	 
    0.00	    55.00	  44.164	   75.793	  114.824	  138.595	  	 
    0.50	    55.00	  39.567	   71.031	  112.389	  139.040	  	 
    1.00	    55.00	  34.601	   63.832	  103.663	  127.970	  	 
    1.50	    55.00	  36.025	   61.157	   99.203	  121.890	  	 
    2.00	    55.00	  35.962	   62.673	   98.985	  121.636	  	 
    2.50	    55.00	  36.769	   63.454	  101.148	  124.174	  	 
    3.00	    55.00	  37.681	   65.296	  104.313	  125.220	  	 
    3.50	    55.00	  40.224	   68.186	  109.311	  131.113	  	 
    4.00	    55.00	  35.719	   62.205	  102.898	  123.837	  	 
    4.50	    55.00	  33.441	   59.996	   96.866	  119.512	  	 
    5.00	    55.00	  31.371	   57.198	   94.229	  115.855	  	 
    5.50	    55.00	  29.705	   53.305	   89.292	  109.310	  	 
    6.00	    55.00	  26.911	   48.132	   81.349	  100.053	  	 
    6.50	    55.00	  24.362	   44.122	   73.697	   92.524	  	 
    7.00	    55.00	  22.878	   40.400	   68.484	   84.876	  	 
    7.50	    55.00	  21.350	   37.247	   63.091	   78.364	  	 
    8.00	    55.00	  19.537	   35.093	   58.665	   72.517	  	 
    8.50	    55.00	  18.361	   32.171	   52.882	   66.247	  	 
    9.00	    55.00	  16.537	   28.590	   47.388	   59.768	  	 
    9.50	    55.00	  15.076	   26.977	   44.625	   56.216	  	 
   10.00	    55.00	  14.111	   25.461	   42.476	   52.344	  	 
   10.50	    55.00	  13.701	   24.812	   41.219	   51.854	  	 
   11.00	    55.00	  14.349	   25.868	   42.554	   52.357	  	 
   11.50	    55.00	  14.723	   26.753	   44.062	   54.066	  	 
   12.00	    55.00	  15.230	   27.428	   45.717	   55.418	  	 
   12.50	    55.00	  15.111	   26.978	   44.999	   55.147	  	 
   13.00	    55.00	  15.413	   26.853	   45.417	   56.137	  	 
   13.50	    55.00	  15.469	   27.089	   45.885	   57.307	  	 
   14.00	    55.00	  15.972	   27.608	   47.113	   59.170	  	 
   14.50	    55.00	  16.111	   28.092	   47.601	   60.434	  	 
   15.00	    55.00	  16.573	   29.832	   51.143	   63.207	  	 
   15.50	    55.00	  17.509	   31.295	   53.698	   65.684	  	 
   16.00	    55.00	  17.667	   32.534	   55.521	   66.911	  	 
   16.50	    55.00	  17.619	   33.112	   55.203	   68.970	  	 
   17.00	    55.00	  18.586	   33.771	   56.711	   71.923	  	 
   17.50	    55.00	  20.078	   36.059	   61.036	   77.077	  	 
   18.00	    55.00	  23.044	   41.055	   68.768	   86.374	  	 
   18.50	    55.00	  26.882	   48.265	   78.425	   99.245	  	 
   19.00	    55.00	  30.607	   52.818	   86.660	  107.863	  	 
   19.50	    55.00	  32.251	   55.534	   90.774	  113.665	  	 
   20.00	    55.00	  35.156	   59.563	   95.739	  125.014	  	 
   20.50	    55.00	  37.068	   66.047	  102.859	  130.295	  	 
   21.00	    55.00	  45.171	   74.425	  116.174	  139.490	  	 
   21.50	    55.00	  49.079	   78.704	  123.106	  141.852	  	 
   22.00	    55.00	  44.621	   74.336	  116.283	  136.129	  	 
   22.50	    55.00	  39.999	   68.288	  105.462	  133.891	  	 
   23.00	    55.00	  39.051	   70.838	  114.040	  154.656	  	 
   23.50	    55.00	  69.733	  122.007	  189.007	  221.724	  	 
    0.00	    57.00	  51.021	   87.934	  129.561	  151.838	  	 
    0.50	    57.00	  42.475	   74.198	  115.857	  144.809	  	 
    1.00	    57.00	  37.932	   67.017	  107.037	  133.056	  	 
    1.50	    57.00	  39.963	   66.318	  105.070	  128.092	  	 
    2.00	    57.00	  40.808	   67.484	  106.904	  130.507	  	 
    2.50	    57.00	  40.176	   66.028	  107.257	  129.609	  	 
    3.00	    57.00	  40.419	   66.053	  107.821	  128.630	  	 
    3.50	    57.00	  41.179	   67.393	  109.789	  131.720	  	 
    4.00	    57.00	  36.565	   61.754	  102.734	  124.337	  	 
    4.50	    57.00	  33.925	   58.502	   95.730	  117.998	  	 
    5.00	    57.00	  31.153	   56.435	   93.311	  113.962	  	 
    5.50	    57.00	  29.612	   52.072	   87.723	  106.952	  	 
    6.00	    57.00	  27.588	   47.119	   80.947	   98.552	  	 
    6.50	    57.00	  25.333	   43.560	   73.745	   90.430	  	 
    7.00	    57.00	  23.118	   39.631	   67.690	   82.911	  	 
    7.50	    57.00	  21.840	   36.306	   62.319	   76.619	  	 
    8.00	    57.00	  20.295	   35.196	   59.744	   72.623	  	 
    8.50	    57.00	  19.468	   33.357	   54.772	   67.018	  	 
    9.00	    57.00	  17.499	   29.653	   49.174	   61.394	  	 
    9.50	    57.00	  16.085	   27.395	   45.882	   57.291	  	 
   10.00	    57.00	  15.047	   26.334	   44.013	   54.276	  	 
   10.50	    57.00	  14.833	   26.032	   43.256	   53.288	  	 
   11.00	    57.00	  15.004	   26.190	   43.537	   53.373	  	 
   11.50	    57.00	  15.291	   26.623	   44.538	   54.457	  	 
   12.00	    57.00	  15.708	   27.271	   46.077	   55.759	  	 
   12.50	    57.00	  15.338	   26.402	   44.917	   55.212	  	 
   13.00	    57.00	  15.557	   26.421	   45.260	   56.144	  	 
   13.50	    57.00	  15.601	   26.677	   45.910	   56.994	  	 
   14.00	    57.00	  16.023	   27.282	   47.125	   58.530	  	 
   14.50	    57.00	  15.908	   27.984	   47.732	   59.609	  	 
   15.00	    57.00	  16.956	   30.452	   51.694	   63.024	  	 
   15.50	    57.00	  17.678	   31.752	   54.831	   65.929	  	 
   16.00	    57.00	  17.951	   32.789	   56.114	   67.834	  	 
   16.50	    57.00	  18.270	   33.049	   55.835	   69.400	  	 
   17.00	    57.00	  19.596	   34.227	   57.390	   72.136	  	 
   17.50	    57.00	  21.168	   37.890	   62.214	   79.764	  	 
   18.00	    57.00	  24.809	   43.203	   71.529	   88.344	  	 
   18.50	    57.00	  28.695	   50.193	   81.420	  101.320	  	 
   19.00	    57.00	  32.013	   53.474	   88.460	  108.231	  	 
   19.50	    57.00	  31.591	   53.999	   89.833	  111.695	  	 
   20.00	    57.00	  31.960	   56.288	   89.911	  117.497	  	 
   20.50	    57.00	  34.238	   61.017	   95.373	  121.841	  	 
   21.00	    57.00	  40.910	   67.891	  106.196	  129.672	  	 
   21.50	    57.00	  44.155	   70.589	  112.130	  131.486	  	 
   22.00	    57.00	  44.756	   70.559	  112.160	  134.152	  	 
   22.50	    57.00	  46.032	   71.746	  115.868	  141.470	  	 
   23.00	    57.00	  51.152	   90.042	  142.686	  182.821	  	 
   23.50	    57.00	 134.010	  197.839	  250.646	  275.711	  	 
    0.00	    59.00	  52.366	   86.491	  130.330	  153.954	  	 
    0.50	    59.00	  44.447	   71.719	  116.456	  144.810	  	 
    1.00	    59.00	  40.453	   68.641	  110.070	  136.508	  	 
    1.50	    59.00	  43.820	   69.944	  111.888	  136.420	  	 
    2.00	    59.00	  43.967	   70.607	  113.255	  138.305	  	 
    2.50	    59.00	  41.435	   67.517	  110.409	  133.605	  	 
    3.00	    59.00	  41.039	   66.478	  109.165	  131.465	  	 
    3.50	    59.00	  40.676	   66.467	  109.497	  131.928	  	 
    4.00	    59.00	  36.754	   60.897	  102.211	  124.395	  	 
    4.50	    59.00	  34.948	   57.886	   94.604	  116.831	  	 
    5.00	    59.00	  31.509	   55.783	   91.070	  111.675	  	 
    5.50	    59.00	  29.201	   52.061	   86.127	  104.377	  	 
    6.00	    59.00	  27.249	   46.531	   80.125	   97.400	  	 
    6.50	    59.00	  26.037	   42.997	   74.079	   89.808	  	 
    7.00	    59.00	  23.203	   39.494	   67.862	   82.522	  	 
    7.50	    59.00	  21.921	   35.981	   62.499	   76.417	  	 
    8.00	    59.00	  20.914	   34.915	   60.027	   73.114	  	 
    8.50	    59.00	  19.957	   33.851	   56.345	   68.616	  	 
    9.00	    59.00	  18.122	   31.013	   51.287	   63.372	  	 
    9.50	    59.00	  16.801	   28.076	   47.491	   59.197	  	 
   10.00	    59.00	  15.877	   26.539	   45.266	   56.331	  	 
   10.50	    59.00	  15.801	   26.304	   44.499	   55.110	  	 
   11.00	    59.00	  15.633	   26.365	   44.639	   55.140	  	 
   11.50	    59.00	  15.911	   26.771	   45.584	   56.031	  	 
   12.00	    59.00	  15.975	   27.081	   46.648	   57.087	  	 
   12.50	    59.00	  15.852	   26.320	   45.119	   56.192	  	 
   13.00	    59.00	  15.821	   26.285	   45.326	   56.852	  	 
   13.50	    59.00	  15.811	   26.691	   45.996	   57.471	  	 
   14.00	    59.00	  16.258	   27.822	   47.634	   58.914	  	 
   14.50	    59.00	  16.585	   29.137	   49.082	   60.064	  	 
   15.00	    59.00	  17.988	   31.536	   53.812	   64.299	  	 
   15.50	    59.00	  18.692	   32.540	   57.235	   67.958	  	 
   16.00	    59.00	  18.826	   32.944	   57.757	   69.902	  	 
   16.50	    59.00	  19.395	   33.155	   56.789	   70.609	  	 
   17.00	    59.00	  20.362	   35.335	   58.906	   74.414	  	 
   17.50	    59.00	  22.719	   39.139	   64.516	   81.496	  	 
   18.00	    59.00	  26.052	   44.831	   73.281	   90.689	  	 
   18.50	    59.00	  29.801	   50.708	   82.861	  101.775	  	 
   19.00	    59.00	  31.587	   52.098	   87.816	  107.229	  	 
   19.50	    59.00	  30.172	   51.351	   88.499	  108.554	  	 
   20.00	    59.00	  30.994	   52.041	   88.101	  108.087	  	 
   20.50	    59.00	  32.316	   55.270	   92.468	  112.711	  	 
   21.00	    59.00	  36.764	   61.174	   99.397	  119.161	  	 
   21.50	    59.00	  41.869	   64.762	  105.428	  122.790	  	 
   22.00	    59.00	  42.513	   66.871	  111.011	  128.298	  	 
   22.50	    59.00	  48.757	   75.715	  118.623	  143.983	  	 
   23.00	    59.00	  65.850	   96.969	  155.731	  191.085	  	 
   23.50	    59.00	 144.737	  193.401	  270.215	  283.732	  	 
    0.00	    61.00	  49.763	   82.184	  123.852	  146.383	  	 
    0.50	    61.00	  44.098	   74.204	  115.134	  140.654	  	 
    1.00	    61.00	  42.069	   69.825	  112.068	  137.280	  	 
    1.50	    61.00	  45.173	   72.679	  116.757	  142.688	  	 
    2.00	    61.00	  45.101	   71.797	  116.885	  142.373	  	 
    2.50	    61.00	  40.905	   67.158	  109.222	  134.164	  	 
    3.00	    61.00	  40.218	   65.735	  107.667	  129.708	  	 
    3.50	    61.00	  38.900	   64.453	  106.205	  128.498	  	 
    4.00	    61.00	  35.331	   59.666	   99.519	  121.428	  	 
    4.50	    61.00	  35.013	   56.364	   91.931	  113.468	  	 
    5.00	    61.00	  31.738	   54.457	   87.825	  107.770	  	 
    5.50	    61.00	  28.657	   50.491	   82.492	  100.900	  	 
    6.00	    61.00	  27.250	   46.039	   78.083	   95.463	  	 
    6.50	    61.00	  25.443	   42.213	   73.863	   88.630	  	 
    7.00	    61.00	  22.910	   39.014	   67.529	   81.997	  	 
    7.50	    61.00	  21.762	   35.848	   62.092	   76.241	  	 
    8.00	    61.00	  21.200	   34.738	   58.932	   72.946	  	 
    8.50	    61.00	  19.779	   33.432	   56.275	   68.945	  	 
    9.00	    61.00	  18.249	   31.325	   52.376	   64.690	  	 
    9.50	    61.00	  17.228	   28.813	   48.661	   60.823	  	 
   10.00	    61.00	  16.450	   26.916	   46.091	   58.135	  	 
   10.50	    61.00	  16.476	   26.472	   45.174	   56.739	  	 
   11.00	    61.00	  16.311	   26.655	   45.505	   56.826	  	 
   11.50	    61.00	  16.389	   27.264	   46.826	   58.010	  	 
   12.00	    61.00	  16.086	   27.359	   47.509	   58.250	  	 
   12.50	    61.00	  16.370	   26.773	   45.902	   57.111	  	 
   13.00	    61.00	  16.286	   26.536	   45.841	   57.516	  	 
   13.50	    61.00	  16.379	   27.159	   46.361	   57.962	  	 
   14.00	    61.00	  16.552	   28.775	   48.293	   59.127	  	 
   14.50	    61.00	  17.195	   30.519	   50.462	   60.621	  	 
   15.00	    61.00	  18.738	   32.443	   55.336	   65.592	  	 
   15.50	    61.00	  19.664	   32.837	   58.664	   69.429	  	 
   16.00	    61.00	  19.756	   33.043	   59.251	   72.145	  	 
   16.50	    61.00	  20.490	   33.947	   58.225	   72.451	  	 
   17.00	    61.00	  20.926	   36.661	   60.895	   76.502	  	 
   17.50	    61.00	  23.784	   40.389	   66.833	   82.982	  	 
   18.00	    61.00	  26.807	   45.193	   73.189	   90.829	  	 
   18.50	    61.00	  29.825	   49.483	   80.816	   99.594	  	 
   19.00	    61.00	  30.343	   49.824	   83.310	  102.860	  	 
   19.50	    61.00	  28.621	   48.261	   85.169	  102.758	  	 
   20.00	    61.00	  30.269	   49.484	   88.350	  103.429	  	 
   20.50	    61.00	  31.556	   52.414	   91.362	  105.053	  	 
   21.00	    61.00	  35.220	   58.408	   93.323	  111.250	  	 
   21.50	    61.00	  40.926	   61.436	   99.316	  115.305	  	 
   22.00	    61.00	  43.581	   66.869	  108.502	  123.637	  	 
   22.50	    61.00	  51.682	   75.381	  115.127	  137.917	  	 
   23.00	    61.00	  53.528	   82.957	  142.263	  170.909	  	 
   23.50	    61.00	  88.820	  142.384	  237.288	  248.757	  	 
    0.00	    63.00	  43.348	   73.302	  113.880	  136.349	  	 
    0.50	    63.00	  42.826	   74.383	  114.643	  140.293	  	 
    1.00	    63.00	  41.770	   70.661	  113.123	  140.160	  	 
    1.50	    63.00	  42.741	   73.493	  116.615	  144.222	  	 
    2.00	    63.00	  43.184	   71.804	  114.921	  141.964	  	 
    2.50	    63.00	  39.676	   66.146	  107.341	  132.802	  	 
    3.00	    63.00	  38.087	   64.059	  104.702	  127.095	  	 
    3.50	    63.00	  36.200	   61.456	  101.403	  124.926	  	 
    4.00	    63.00	  33.675	   57.798	   94.635	  118.001	  	 
    4.50	    63.00	  31.501	   54.508	   87.361	  109.592	  	 
    5.00	    63.00	  29.289	   51.320	   83.197	  103.689	  	 
    5.50	    63.00	  27.471	   48.194	   78.721	   98.676	  	 
    6.00	    63.00	  26.297	   44.689	   74.949	   93.378	  	 
    6.50	    63.00	  24.050	   41.097	   70.772	   87.060	  	 
    7.00	    63.00	  21.737	   37.575	   65.615	   80.640	  	 
    7.50	    63.00	  21.416	   34.910	   60.243	   74.824	  	 
    8.00	    63.00	  20.212	   34.046	   57.061	   71.563	  	 
    8.50	    63.00	  19.121	   32.917	   55.126	   68.517	  	 
    9.00	    63.00	  18.093	   31.205	   52.512	   64.885	  	 
    9.50	    63.00	  16.950	   29.291	   49.455	   61.471	  	 
   10.00	    63.00	  16.414	   27.526	   46.444	   59.089	  	 
   10.50	    63.00	  16.385	   26.957	   45.598	   57.886	  	 
   11.00	    63.00	  16.316	   27.054	   45.682	   57.686	  	 
   11.50	    63.00	  16.401	   27.485	   46.882	   58.564	  	 
   12.00	    63.00	  16.022	   27.535	   46.847	   58.283	  	 
   12.50	    63.00	  16.581	   27.321	   45.863	   57.389	  	 
   13.00	    63.00	  16.464	   26.951	   46.010	   57.492	  	 
   13.50	    63.00	  16.290	   27.296	   46.642	   57.698	  	 
   14.00	    63.00	  16.290	   29.147	   48.340	   59.208	  	 
   14.50	    63.00	  17.329	   30.579	   50.764	   61.280	  	 
   15.00	    63.00	  18.981	   32.203	   54.963	   66.873	  	 
   15.50	    63.00	  19.871	   32.893	   57.901	   70.736	  	 
   16.00	    63.00	  19.987	   33.593	   59.269	   73.620	  	 
   16.50	    63.00	  20.847	   35.209	   59.756	   75.068	  	 
   17.00	    63.00	  21.946	   37.919	   63.055	   79.242	  	 
   17.50	    63.00	  24.489	   40.961	   67.538	   85.712	  	 
   18.00	    63.00	  26.264	   44.112	   72.100	   91.063	  	 
   18.50	    63.00	  27.323	   47.252	   78.063	   97.489	  	 
   19.00	    63.00	  29.146	   47.496	   79.878	  100.677	  	 
   19.50	    63.00	  27.980	   46.548	   82.577	  100.720	  	 
   20.00	    63.00	  29.436	   48.166	   85.806	  101.285	  	 
   20.50	    63.00	  29.665	   51.276	   88.607	  103.191	  	 
   21.00	    63.00	  34.817	   55.948	   90.338	  109.321	  	 
   21.50	    63.00	  37.363	   58.127	   95.633	  112.497	  	 
   22.00	    63.00	  41.332	   65.839	  106.019	  122.777	  	 
   22.50	    63.00	  43.237	   70.468	  110.471	  133.186	  	 
   23.00	    63.00	  41.353	   72.742	  120.703	  148.338	  	 
   23.50	    63.00	  59.943	  103.264	  175.579	  190.600	  	 
    0.00	    65.00	  38.370	   65.470	  104.031	  128.080	  	 
    0.50	    65.00	  42.217	   70.596	  108.797	  134.061	  	 
    1.00	    65.00	  41.311	   70.159	  111.022	  137.379	  	 
    1.50	    65.00	  42.043	   72.628	  113.697	  141.262	  	 
    2.00	    65.00	  41.470	   70.380	  110.515	  138.988	  	 
    2.50	    65.00	  39.089	   65.705	  105.278	  130.943	  	 
    3.00	    65.00	  36.980	   63.153	  102.372	  124.590	  	 
    3.50	    65.00	  35.045	   59.765	   96.794	  119.552	  	 
    4.00	    65.00	  32.710	   56.282	   89.958	  113.738	  	 
    4.50	    65.00	  30.265	   51.729	   83.118	  105.187	  	 
    5.00	    65.00	  27.632	   48.442	   78.815	   99.013	  	 
    5.50	    65.00	  26.353	   45.694	   75.211	   94.582	  	 
    6.00	    65.00	  25.402	   43.683	   71.958	   89.813	  	 
    6.50	    65.00	  23.333	   40.420	   67.758	   84.509	  	 
    7.00	    65.00	  21.539	   36.801	   62.461	   78.427	  	 
    7.50	    65.00	  20.900	   34.448	   58.455	   73.286	  	 
    8.00	    65.00	  19.722	   33.570	   55.462	   70.042	  	 
    8.50	    65.00	  19.228	   32.719	   54.232	   67.603	  	 
    9.00	    65.00	  18.169	   31.640	   52.185	   64.791	  	 
    9.50	    65.00	  17.189	   30.349	   50.568	   61.999	  	 
   10.00	    65.00	  16.882	   29.071	   47.607	   60.305	  	 
   10.50	    65.00	  16.720	   28.329	   46.829	   58.698	  	 
   11.00	    65.00	  16.660	   27.882	   45.995	   58.018	  	 
   11.50	    65.00	  16.380	   28.189	   47.059	   58.401	  	 
   12.00	    65.00	  15.997	   28.304	   46.779	   57.986	  	 
   12.50	    65.00	  16.626	   28.431	   46.600	   57.618	  	 
   13.00	    65.00	  16.716	   28.076	   46.680	   57.419	  	 
   13.50	    65.00	  16.506	   28.160	   47.394	   57.555	  	 
   14.00	    65.00	  16.494	   29.431	   48.288	   59.315	  	 
   14.50	    65.00	  17.271	   30.450	   50.187	   61.872	  	 
   15.00	    65.00	  19.141	   32.265	   54.247	   67.326	  	 
   15.50	    65.00	  20.271	   33.571	   57.110	   71.198	  	 
   16.00	    65.00	  20.802	   34.781	   59.108	   74.616	  	 
   16.50	    65.00	  21.410	   36.634	   61.071	   75.927	  	 
   17.00	    65.00	  22.748	   38.916	   63.772	   79.032	  	 
   17.50	    65.00	  24.271	   40.998	   67.520	   86.484	  	 
   18.00	    65.00	  25.538	   42.649	   69.721	   89.992	  	 
   18.50	    65.00	  27.110	   45.397	   74.355	   94.701	  	 
   19.00	    65.00	  28.819	   46.163	   76.409	   97.518	  	 
   19.50	    65.00	  27.873	   45.150	   78.795	   99.127	  	 
   20.00	    65.00	  28.891	   46.392	   82.657	  100.544	  	 
   20.50	    65.00	  29.571	   50.783	   85.871	  103.248	  	 
   21.00	    65.00	  32.873	   55.605	   90.086	  109.104	  	 
   21.50	    65.00	  35.748	   57.269	   94.433	  112.764	  	 
   22.00	    65.00	  37.041	   62.856	  101.265	  119.915	  	 
   22.50	    65.00	  37.368	   67.790	  105.638	  126.888	  	 
   23.00	    65.00	  38.225	   66.752	  104.609	  130.427	  	 
   23.50	    65.00	  42.325	   72.981	  110.607	  137.960	  	 
    0.00	    67.00	  37.106	   62.871	  100.548	  121.948	  	 
    0.50	    67.00	  38.807	   67.397	  105.428	  128.020	  	 
    1.00	    67.00	  39.803	   68.550	  108.045	  131.514	  	 
    1.50	    67.00	  40.841	   70.325	  109.109	  133.661	  	 
    2.00	    67.00	  40.245	   68.809	  107.968	  133.499	  	 
    2.50	    67.00	  37.996	   65.670	  103.946	  126.805	  	 
    3.00	    67.00	  36.581	   62.771	  100.886	  120.615	  	 
    3.50	    67.00	  34.412	   59.354	   94.506	  114.389	  	 
    4.00	    67.00	  30.928	   55.145	   88.114	  108.693	  	 
    4.50	    67.00	  28.509	   49.368	   80.790	   99.114	  	 
    5.00	    67.00	  27.144	   46.894	   76.014	   92.648	  	 
    5.50	    67.00	  25.516	   45.115	   72.649	   89.186	  	 
    6.00	    67.00	  24.372	   43.146	   70.121	   85.009	  	 
    6.50	    67.00	  23.008	   40.071	   66.182	   80.747	  	 
    7.00	    67.00	  21.598	   36.975	   61.609	   76.269	  	 
    7.50	    67.00	  20.264	   34.341	   57.535	   71.085	  	 
    8.00	    67.00	  19.295	   33.171	   55.075	   68.038	  	 
    8.50	    67.00	  19.171	   32.555	   53.638	   65.867	  	 
    9.00	    67.00	  18.361	   31.690	   52.246	   63.216	  	 
    9.50	    67.00	  17.150	   31.048	   51.082	   60.825	  	 
   10.00	    67.00	  17.361	   30.755	   49.517	   59.850	  	 
   10.50	    67.00	  16.574	   29.898	   48.480	   57.990	  	 
   11.00	    67.00	  16.217	   29.202	   47.481	   57.306	  	 
   11.50	    67.00	  16.098	   29.395	   48.009	   57.041	  	 
   12.00	    67.00	  16.296	   29.979	   48.777	   57.614	  	 
   12.50	    67.00	  16.730	   29.900	   48.838	   57.360	  	 
   13.00	    67.00	  16.770	   29.677	   48.869	   57.129	  	 
   13.50	    67.00	  16.736	   29.642	   49.046	   57.307	  	 
   14.00	    67.00	  16.874	   30.091	   49.654	   58.884	  	 
   14.50	    67.00	  17.036	   30.908	   51.256	   61.311	  	 
   15.00	    67.00	  18.813	   33.328	   54.608	   66.726	  	 
   15.50	    67.00	  20.005	   34.643	   57.211	   70.255	  	 
   16.00	    67.00	  20.789	   35.804	   59.327	   72.568	  	 
   16.50	    67.00	  21.166	   37.536	   61.606	   73.569	  	 
   17.00	    67.00	  21.590	   39.086	   63.547	   75.712	  	 
   17.50	    67.00	  22.831	   40.688	   66.085	   80.446	  	 
   18.00	    67.00	  24.419	   41.628	   68.627	   85.457	  	 
   18.50	    67.00	  27.128	   44.246	   72.102	   90.017	  	 
   19.00	    67.00	  28.288	   44.928	   73.909	   92.740	  	 
   19.50	    67.00	  27.162	   44.267	   76.138	   94.581	  	 
   20.00	    67.00	  27.685	   45.670	   80.379	   96.256	  	 
   20.50	    67.00	  29.644	   49.003	   83.953	   99.751	  	 
   21.00	    67.00	  32.601	   54.882	   89.592	  104.489	  	 
   21.50	    67.00	  36.556	   58.561	   93.290	  111.013	  	 
   22.00	    67.00	  37.235	   61.082	   98.251	  114.724	  	 
   22.50	    67.00	  35.120	   62.298	   99.485	  118.295	  	 
   23.00	    67.00	  36.927	   65.027	   99.518	  120.509	  	 
   23.50	    67.00	  39.054	   70.163	  102.788	  125.469	  	 
    0.00	    69.00	  34.996	   62.486	   99.548	  116.636	  	 
    0.50	    69.00	  36.489	   65.037	  102.200	  121.223	  	 
    1.00	    69.00	  38.475	   66.151	  103.254	  123.707	  	 
    1.50	    69.00	  38.761	   67.405	  103.351	  123.658	  	 
    2.00	    69.00	  38.223	   66.909	  104.257	  125.142	  	 
    2.50	    69.00	  36.062	   63.594	  100.527	  121.033	  	 
    3.00	    69.00	  34.574	   60.880	   96.924	  116.381	  	 
    3.50	    69.00	  32.346	   57.771	   91.943	  109.474	  	 
    4.00	    69.00	  29.568	   53.066	   85.822	  103.571	  	 
    4.50	    69.00	  26.683	   47.344	   78.355	   93.826	  	 
    5.00	    69.00	  25.792	   44.970	   73.076	   87.639	  	 
    5.50	    69.00	  24.650	   44.208	   70.254	   84.081	  	 
    6.00	    69.00	  23.888	   42.201	   68.427	   81.013	  	 
    6.50	    69.00	  22.590	   39.392	   64.687	   77.532	  	 
    7.00	    69.00	  21.222	   36.201	   60.553	   74.414	  	 
    7.50	    69.00	  19.622	   33.886	   56.800	   69.553	  	 
    8.00	    69.00	  18.390	   32.288	   54.312	   65.904	  	 
    8.50	    69.00	  18.438	   31.628	   52.292	   63.113	  	 
    9.00	    69.00	  17.578	   30.840	   51.213	   60.766	  	 
    9.50	    69.00	  16.532	   30.482	   49.879	   58.964	  	 
   10.00	    69.00	  17.231	   30.744	   50.259	   58.681	  	 
   10.50	    69.00	  16.483	   30.126	   48.980	   57.395	  	 
   11.00	    69.00	  16.248	   29.439	   48.299	   56.410	  	 
   11.50	    69.00	  15.937	   29.690	   48.385	   55.950	  	 
   12.00	    69.00	  16.556	   30.601	   50.372	   57.884	  	 
   12.50	    69.00	  16.648	   30.641	   50.563	   57.671	  	 
   13.00	    69.00	  16.782	   30.368	   50.365	   57.421	  	 
   13.50	    69.00	  16.688	   30.656	   50.490	   57.536	  	 
   14.00	    69.00	  17.064	   30.498	   50.844	   58.710	  	 
   14.50	    69.00	  17.123	   31.165	   51.713	   61.183	  	 
   15.00	    69.00	  18.900	   33.298	   54.621	   65.750	  	 
   15.50	    69.00	  19.977	   34.607	   56.774	   68.999	  	 
   16.00	    69.00	  20.635	   35.954	   59.290	   70.853	  	 
   16.50	    69.00	  21.015	   37.270	   60.675	   70.603	  	 
   17.00	    69.00	  21.356	   38.657	   62.388	   71.856	  	 
   17.50	    69.00	  22.595	   39.975	   64.428	   75.339	  	 
   18.00	    69.00	  24.473	   41.015	   67.939	   81.547	  	 
   18.50	    69.00	  26.698	   43.354	   70.772	   85.908	  	 
   19.00	    69.00	  27.099	   44.054	   72.356	   88.936	  	 
   19.50	    69.00	  26.094	   43.802	   72.458	   90.321	  	 
   20.00	    69.00	  26.739	   45.576	   77.307	   94.482	  	 
   20.50	    69.00	  29.396	   48.744	   81.353	   97.083	  	 
   21.00	    69.00	  32.659	   55.036	   89.456	  102.544	  	 
   21.50	    69.00	  33.387	   58.210	   94.161	  108.904	  	 
   22.00	    69.00	  34.753	   59.747	   94.966	  110.021	  	 
   22.50	    69.00	  34.178	   58.616	   94.701	  111.236	  	 
   23.00	    69.00	  35.863	   62.635	   97.514	  115.775	  	 
   23.50	    69.00	  38.150	   71.229	  105.573	  124.743	  	 
    0.00	    71.00	  32.934	   60.766	   97.786	  117.741	  	 
    0.50	    71.00	  33.725	   62.145	   98.403	  120.432	  	 
    1.00	    71.00	  34.154	   62.439	   98.059	  121.107	  	 
    1.50	    71.00	  34.634	   63.538	   97.940	  119.393	  	 
    2.00	    71.00	  34.377	   63.060	   97.700	  119.125	  	 
    2.50	    71.00	  32.882	   59.041	   95.808	  118.604	  	 
    3.00	    71.00	  31.118	   56.821	   92.830	  114.477	  	 
    3.50	    71.00	  29.289	   54.764	   86.904	  107.276	  	 
    4.00	    71.00	  27.751	   50.961	   82.328	  100.580	  	 
    4.50	    71.00	  25.438	   45.270	   74.944	   92.128	  	 
    5.00	    71.00	  24.282	   43.580	   72.342	   88.107	  	 
    5.50	    71.00	  23.237	   42.434	   69.088	   84.399	  	 
    6.00	    71.00	  22.646	   40.833	   67.481	   80.709	  	 
    6.50	    71.00	  21.402	   37.780	   62.946	   77.785	  	 
    7.00	    71.00	  20.340	   35.120	   59.396	   74.968	  	 
    7.50	    71.00	  19.154	   33.213	   55.453	   70.279	  	 
    8.00	    71.00	  17.425	   31.751	   53.332	   65.789	  	 
    8.50	    71.00	  16.828	   30.780	   51.059	   62.718	  	 
    9.00	    71.00	  16.153	   29.830	   50.004	   60.030	  	 
    9.50	    71.00	  15.444	   29.588	   48.496	   58.381	  	 
   10.00	    71.00	  16.362	   30.282	   49.725	   58.894	  	 
   10.50	    71.00	  16.204	   29.858	   48.925	   58.456	  	 
   11.00	    71.00	  16.017	   29.349	   48.625	   57.632	  	 
   11.50	    71.00	  15.715	   29.644	   48.958	   58.087	  	 
   12.00	    71.00	  16.205	   31.117	   51.029	   58.971	  	 
   12.50	    71.00	  15.998	   30.740	   50.890	   58.900	  	 
   13.00	    71.00	  16.062	   30.494	   51.288	   58.734	  	 
   13.50	    71.00	  16.221	   30.719	   50.965	   59.214	  	 
   14.00	    71.00	  16.763	   30.754	   51.723	   60.022	  	 
   14.50	    71.00	  16.876	   30.946	   52.216	   62.582	  	 
   15.00	    71.00	  18.347	   32.224	   54.128	   66.963	  	 
   15.50	    71.00	  19.294	   33.066	   55.528	   69.549	  	 
   16.00	    71.00	  19.682	   34.536	   57.351	   70.403	  	 
   16.50	    71.00	  20.082	   35.778	   58.106	   70.440	  	 
   17.00	    71.00	  20.185	   36.962	   59.704	   72.881	  	 
   17.50	    71.00	  21.085	   38.477	   61.970	   76.253	  	 
   18.00	    71.00	  22.568	   39.472	   66.348	   81.652	  	 
   18.50	    71.00	  24.812	   42.294	   69.722	   88.929	  	 
   19.00	    71.00	  25.931	   42.650	   71.127	   92.477	  	 
   19.50	    71.00	  25.428	   42.611	   71.471	   93.766	  	 
   20.00	    71.00	  26.352	   45.482	   76.300	   98.587	  	 
   20.50	    71.00	  28.010	   49.126	   80.015	   98.640	  	 
   21.00	    71.00	  30.887	   53.381	   86.302	  107.536	  	 
   21.50	    71.00	  32.595	   55.785	   91.268	  107.644	  	 
   22.00	    71.00	  32.203	   56.223	   92.040	  110.364	  	 
   22.50	    71.00	  31.866	   56.911	   93.236	  112.978	  	 
   23.00	    71.00	  32.880	   59.013	   93.534	  116.112	  	 
   23.50	    71.00	  34.653	   63.661	  100.895	  124.873	  	 
    0.00	    73.00	  31.542	   58.277	   94.025	  116.555	  	 
    0.50	    73.00	  32.512	   58.685	   94.563	  118.101	  	 
    1.00	    73.00	  31.142	   58.287	   92.666	  118.552	  	 
    1.50	    73.00	  32.220	   59.096	   92.293	  116.594	  	 
    2.00	    73.00	  32.287	   58.518	   92.043	  114.470	  	 
    2.50	    73.00	  30.711	   55.389	   90.030	  114.724	  	 
    3.00	    73.00	  28.332	   53.700	   87.708	  110.543	  	 
    3.50	    73.00	  26.780	   52.437	   82.355	  104.005	  	 
    4.00	    73.00	  26.173	   48.880	   78.698	   98.142	  	 
    4.50	    73.00	  24.903	   44.054	   73.109	   91.077	  	 
    5.00	    73.00	  23.464	   42.611	   71.708	   88.626	  	 
    5.50	    73.00	  22.002	   41.390	   67.971	   84.326	  	 
    6.00	    73.00	  21.226	   39.770	   65.516	   79.434	  	 
    6.50	    73.00	  20.502	   36.577	   60.659	   77.243	  	 
    7.00	    73.00	  19.744	   34.263	   58.455	   75.249	  	 
    7.50	    73.00	  18.810	   32.580	   54.737	   70.620	  	 
    8.00	    73.00	  17.262	   31.257	   52.819	   65.900	  	 
    8.50	    73.00	  16.163	   30.313	   50.277	   62.531	  	 
    9.00	    73.00	  15.434	   29.458	   49.307	   59.838	  	 
    9.50	    73.00	  14.810	   29.013	   47.503	   58.448	  	 
   10.00	    73.00	  15.768	   29.923	   49.389	   59.295	  	 
   10.50	    73.00	  15.940	   29.965	   49.016	   59.486	  	 
   11.00	    73.00	  15.676	   29.666	   48.991	   58.678	  	 
   11.50	    73.00	  15.434	   30.104	   49.263	   59.456	  	 
   12.00	    73.00	  15.846	   31.104	   50.974	   59.842	  	 
   12.50	    73.00	  15.501	   30.733	   50.760	   59.531	  	 
   13.00	    73.00	  15.694	   30.575	   51.476	   59.603	  	 
   13.50	    73.00	  16.124	   30.573	   51.305	   60.292	  	 
   14.00	    73.00	  16.430	   30.824	   52.094	   61.550	  	 
   14.50	    73.00	  16.722	   30.758	   52.249	   63.818	  	 
   15.00	    73.00	  17.923	   31.540	   53.690	   67.633	  	 
   15.50	    73.00	  18.440	   31.925	   54.335	   69.920	  	 
   16.00	    73.00	  18.800	   33.278	   55.803	   70.310	  	 
   16.50	    73.00	  19.024	   33.939	   55.558	   70.475	  	 
   17.00	    73.00	  19.466	   34.983	   56.866	   74.086	  	 
   17.50	    73.00	  20.184	   37.020	   59.404	   76.808	  	 
   18.00	    73.00	  21.444	   38.455	   64.508	   80.706	  	 
   18.50	    73.00	  24.002	   41.080	   68.014	   90.057	  	 
   19.00	    73.00	  26.197	   42.010	   70.482	   94.024	  	 
   19.50	    73.00	  25.417	   42.207	   70.507	   96.592	  	 
   20.00	    73.00	  25.778	   46.216	   74.199	  100.651	  	 
   20.50	    73.00	  26.428	   48.149	   78.427	  100.140	  	 
   21.00	    73.00	  29.341	   52.551	   86.241	  111.043	  	 
   21.50	    73.00	  29.381	   52.951	   88.183	  107.291	  	 
   22.00	    73.00	  29.839	   54.418	   90.233	  109.900	  	 
   22.50	    73.00	  30.335	   55.280	   90.359	  114.550	  	 
   23.00	    73.00	  30.767	   54.936	   90.025	  115.791	  	 
   23.50	    73.00	  32.021	   56.837	   95.186	  122.555	  	 
    0.00	    75.00	  29.339	   54.678	   89.551	  112.556	  	 
    0.50	    75.00	  30.372	   55.547	   89.797	  113.472	  	 
    1.00	    75.00	  29.270	   55.513	   88.515	  114.129	  	 
    1.50	    75.00	  29.355	   56.433	   87.862	  113.745	  	 
    2.00	    75.00	  29.232	   55.396	   87.210	  109.435	  	 
    2.50	    75.00	  27.670	   53.051	   85.297	  110.330	  	 
    3.00	    75.00	  25.857	   51.884	   83.008	  104.164	  	 
    3.50	    75.00	  25.169	   49.767	   79.170	  100.156	  	 
    4.00	    75.00	  25.174	   47.406	   76.129	   96.256	  	 
    4.50	    75.00	  24.662	   43.709	   72.760	   89.154	  	 
    5.00	    75.00	  22.811	   41.894	   70.675	   86.443	  	 
    5.50	    75.00	  21.608	   40.607	   66.184	   82.216	  	 
    6.00	    75.00	  20.195	   38.568	   63.073	   77.293	  	 
    6.50	    75.00	  19.815	   36.178	   59.422	   75.264	  	 
    7.00	    75.00	  19.385	   33.961	   57.280	   73.508	  	 
    7.50	    75.00	  18.083	   32.300	   54.529	   70.195	  	 
    8.00	    75.00	  16.848	   30.947	   52.663	   66.000	  	 
    8.50	    75.00	  15.841	   30.109	   50.567	   62.633	  	 
    9.00	    75.00	  15.198	   29.591	   49.752	   60.390	  	 
    9.50	    75.00	  14.528	   29.200	   48.221	   59.355	  	 
   10.00	    75.00	  15.074	   29.804	   49.486	   59.667	  	 
   10.50	    75.00	  15.253	   29.880	   49.642	   59.658	  	 
   11.00	    75.00	  15.205	   29.714	   49.670	   59.330	  	 
   11.50	    75.00	  14.862	   29.933	   49.631	   59.868	  	 
   12.00	    75.00	  15.059	   30.227	   50.842	   59.798	  	 
   12.50	    75.00	  14.859	   30.368	   51.052	   59.433	  	 
   13.00	    75.00	  15.149	   30.088	   51.654	   60.005	  	 
   13.50	    75.00	  15.508	   30.200	   51.432	   61.129	  	 
   14.00	    75.00	  16.049	   30.617	   51.948	   62.522	  	 
   14.50	    75.00	  16.159	   30.572	   51.789	   64.420	  	 
   15.00	    75.00	  16.855	   30.813	   53.318	   67.107	  	 
   15.50	    75.00	  17.427	   31.031	   53.467	   69.218	  	 
   16.00	    75.00	  18.006	   32.296	   54.614	   69.509	  	 
   16.50	    75.00	  18.309	   33.016	   54.367	   70.218	  	 
   17.00	    75.00	  18.929	   34.313	   55.050	   72.886	  	 
   17.50	    75.00	  19.824	   35.900	   57.242	   74.912	  	 
   18.00	    75.00	  21.229	   36.737	   62.356	   79.751	  	 
   18.50	    75.00	  23.121	   39.370	   66.183	   86.256	  	 
   19.00	    75.00	  25.294	   41.477	   68.679	   90.736	  	 
   19.50	    75.00	  24.302	   42.060	   68.692	   92.772	  	 
   20.00	    75.00	  25.067	   45.302	   71.155	   96.997	  	 
   20.50	    75.00	  25.662	   47.270	   75.690	   97.896	  	 
   21.00	    75.00	  27.156	   50.672	   81.643	  105.884	  	 
   21.50	    75.00	  27.000	   50.539	   83.005	  104.907	  	 
   22.00	    75.00	  29.361	   52.265	   86.678	  106.147	  	 
   22.50	    75.00	  29.772	   53.345	   87.752	  110.863	  	 
   23.00	    75.00	  28.867	   52.511	   85.990	  109.989	  	 
   23.50	    75.00	  29.095	   55.606	   89.190	  115.126	  	 
    0.00	    77.00	  27.878	   51.383	   84.857	  107.134	  	 
    0.50	    77.00	  27.309	   52.719	   84.203	  107.211	  	 
    1.00	    77.00	  27.485	   53.660	   83.503	  107.708	  	 
    1.50	    77.00	  27.479	   53.352	   82.566	  108.346	  	 
    2.00	    77.00	  26.593	   52.111	   81.885	  104.774	  	 
    2.50	    77.00	  25.805	   50.277	   79.790	  104.590	  	 
    3.00	    77.00	  24.108	   48.347	   77.248	   96.542	  	 
    3.50	    77.00	  24.051	   46.238	   74.552	   94.471	  	 
    4.00	    77.00	  24.238	   44.453	   73.023	   92.215	  	 
    4.50	    77.00	  22.861	   42.150	   70.394	   85.936	  	 
    5.00	    77.00	  21.633	   40.443	   68.201	   82.452	  	 
    5.50	    77.00	  20.803	   38.836	   63.463	   78.995	  	 
    6.00	    77.00	  19.332	   37.011	   60.798	   74.797	  	 
    6.50	    77.00	  18.902	   35.357	   57.840	   73.063	  	 
    7.00	    77.00	  18.686	   33.535	   56.474	   71.621	  	 
    7.50	    77.00	  17.533	   32.214	   54.389	   69.165	  	 
    8.00	    77.00	  17.023	   30.807	   52.203	   65.609	  	 
    8.50	    77.00	  15.840	   29.900	   50.787	   62.680	  	 
    9.00	    77.00	  15.511	   29.785	   50.173	   60.988	  	 
    9.50	    77.00	  14.661	   29.187	   48.729	   60.252	  	 
   10.00	    77.00	  14.811	   29.510	   49.198	   59.810	  	 
   10.50	    77.00	  14.774	   29.568	   49.534	   59.664	  	 
   11.00	    77.00	  14.847	   29.270	   49.552	   59.469	  	 
   11.50	    77.00	  14.344	   29.330	   49.181	   59.511	  	 
   12.00	    77.00	  14.604	   29.163	   49.847	   59.068	  	 
   12.50	    77.00	  14.736	   29.586	   50.503	   59.284	  	 
   13.00	    77.00	  15.148	   29.554	   51.001	   60.138	  	 
   13.50	    77.00	  15.335	   29.915	   51.176	   61.630	  	 
   14.00	    77.00	  15.815	   30.213	   51.540	   62.907	  	 
   14.50	    77.00	  15.978	   30.378	   51.395	   63.962	  	 
   15.00	    77.00	  16.487	   30.401	   52.401	   65.597	  	 
   15.50	    77.00	  16.689	   30.702	   52.536	   67.521	  	 
   16.00	    77.00	  17.205	   31.450	   53.483	   68.223	  	 
   16.50	    77.00	  17.414	   32.279	   53.411	   68.982	  	 
   17.00	    77.00	  18.370	   33.045	   53.873	   70.825	  	 
   17.50	    77.00	  19.201	   33.964	   55.547	   73.311	  	 
   18.00	    77.00	  20.990	   35.355	   59.299	   76.544	  	 
   18.50	    77.00	  22.261	   37.645	   62.161	   80.470	  	 
   19.00	    77.00	  23.529	   40.118	   65.666	   84.261	  	 
   19.50	    77.00	  22.705	   41.197	   65.663	   86.334	  	 
   20.00	    77.00	  24.165	   43.064	   67.704	   91.059	  	 
   20.50	    77.00	  24.624	   45.223	   71.943	   93.355	  	 
   21.00	    77.00	  26.639	   47.852	   77.877	   99.180	  	 
   21.50	    77.00	  26.811	   47.877	   79.124	  102.293	  	 
   22.00	    77.00	  27.324	   51.346	   82.374	  101.893	  	 
   22.50	    77.00	  26.836	   50.530	   83.034	  104.803	  	 
   23.00	    77.00	  27.003	   49.471	   81.276	  102.911	  	 
   23.50	    77.00	  27.633	   54.613	   82.460	  106.632	  	 
    0.00	    79.00	  25.781	   47.428	   78.377	  102.849	  	 
    0.50	    79.00	  25.289	   49.137	   78.220	  102.111	  	 
    1.00	    79.00	  26.066	   50.029	   75.782	  103.939	  	 
    1.50	    79.00	  26.499	   49.595	   76.045	  101.372	  	 
    2.00	    79.00	  25.822	   48.533	   75.597	   99.578	  	 
    2.50	    79.00	  23.863	   46.968	   73.408	   97.232	  	 
    3.00	    79.00	  22.968	   44.627	   71.986	   90.019	  	 
    3.50	    79.00	  23.047	   43.271	   69.788	   88.180	  	 
    4.00	    79.00	  21.466	   39.589	   66.972	   85.965	  	 
    4.50	    79.00	  20.475	   38.957	   66.212	   80.762	  	 
    5.00	    79.00	  20.079	   37.392	   63.895	   78.106	  	 
    5.50	    79.00	  19.316	   35.556	   59.456	   75.627	  	 
    6.00	    79.00	  18.508	   34.170	   58.866	   72.950	  	 
    6.50	    79.00	  18.692	   33.354	   56.135	   71.562	  	 
    7.00	    79.00	  18.598	   32.744	   55.372	   70.588	  	 
    7.50	    79.00	  17.427	   31.763	   53.897	   68.393	  	 
    8.00	    79.00	  17.144	   30.481	   51.704	   65.321	  	 
    8.50	    79.00	  15.767	   29.775	   50.825	   63.435	  	 
    9.00	    79.00	  16.054	   29.599	   50.636	   62.730	  	 
    9.50	    79.00	  15.441	   28.974	   49.417	   62.148	  	 
   10.00	    79.00	  15.560	   29.119	   49.493	   61.073	  	 
   10.50	    79.00	  15.069	   28.704	   49.138	   60.027	  	 
   11.00	    79.00	  15.514	   28.430	   49.202	   60.294	  	 
   11.50	    79.00	  15.046	   28.768	   49.257	   60.288	  	 
   12.00	    79.00	  15.359	   28.736	   49.829	   59.089	  	 
   12.50	    79.00	  15.281	   28.909	   49.930	   59.562	  	 
   13.00	    79.00	  15.860	   29.081	   50.695	   60.834	  	 
   13.50	    79.00	  16.051	   29.647	   50.490	   62.480	  	 
   14.00	    79.00	  16.327	   29.685	   51.230	   62.737	  	 
   14.50	    79.00	  16.155	   29.781	   50.687	   63.288	  	 
   15.00	    79.00	  16.554	   29.823	   51.709	   64.453	  	 
   15.50	    79.00	  16.558	   29.990	   51.957	   66.301	  	 
   16.00	    79.00	  17.282	   30.476	   52.892	   67.458	  	 
   16.50	    79.00	  17.453	   30.924	   52.659	   67.899	  	 
   17.00	    79.00	  18.416	   31.486	   52.683	   68.515	  	 
   17.50	    79.00	  19.258	   32.539	   53.782	   70.688	  	 
   18.00	    79.00	  21.934	   33.792	   57.022	   74.126	  	 
   18.50	    79.00	  22.998	   35.686	   59.581	   79.348	  	 
   19.00	    79.00	  24.101	   37.224	   61.915	   80.191	  	 
   19.50	    79.00	  23.064	   38.899	   62.677	   83.280	  	 
   20.00	    79.00	  23.670	   40.940	   66.018	   81.365	  	 
   20.50	    79.00	  22.840	   41.937	   67.883	   88.514	  	 
   21.00	    79.00	  26.776	   45.004	   73.551	   94.260	  	 
   21.50	    79.00	  26.301	   46.105	   75.112	   97.272	  	 
   22.00	    79.00	  26.875	   48.262	   77.796	   98.715	  	 
   22.50	    79.00	  23.648	   46.618	   76.566	   99.661	  	 
   23.00	    79.00	  23.966	   45.636	   74.920	   99.196	  	 
   23.50	    79.00	  25.529	   47.853	   76.100	   99.584	  	 
    0.00	    81.00	  25.112	   44.209	   71.904	   96.476	  	 
    0.50	    81.00	  25.263	   45.795	   71.577	   94.532	  	 
    1.00	    81.00	  25.621	   46.944	   69.509	   96.593	  	 
    1.50	    81.00	  25.824	   46.070	   68.939	   92.846	  	 
    2.00	    81.00	  25.160	   44.728	   69.386	   94.013	  	 
    2.50	    81.00	  23.526	   43.751	   67.417	   89.766	  	 
    3.00	    81.00	  22.418	   41.959	   66.794	   83.994	  	 
    3.50	    81.00	  21.946	   40.043	   64.896	   82.349	  	 
    4.00	    81.00	  21.761	   37.008	   62.418	   79.978	  	 
    4.50	    81.00	  20.201	   36.079	   61.042	   76.697	  	 
    5.00	    81.00	  19.884	   34.847	   60.047	   74.746	  	 
    5.50	    81.00	  19.001	   33.076	   56.217	   72.558	  	 
    6.00	    81.00	  19.231	   32.724	   57.186	   71.826	  	 
    6.50	    81.00	  19.252	   32.226	   54.991	   70.191	  	 
    7.00	    81.00	  19.562	   32.128	   54.687	   69.886	  	 
    7.50	    81.00	  18.765	   31.773	   53.804	   68.753	  	 
    8.00	    81.00	  18.373	   30.898	   51.952	   65.944	  	 
    8.50	    81.00	  17.041	   30.405	   51.136	   64.863	  	 
    9.00	    81.00	  17.269	   30.188	   51.158	   64.497	  	 
    9.50	    81.00	  16.788	   29.565	   50.017	   64.239	  	 
   10.00	    81.00	  17.154	   29.488	   49.984	   62.828	  	 
   10.50	    81.00	  16.512	   28.983	   49.047	   61.442	  	 
   11.00	    81.00	  16.938	   28.668	   49.094	   61.610	  	 
   11.50	    81.00	  16.581	   29.080	   49.504	   61.505	  	 
   12.00	    81.00	  16.860	   28.950	   50.174	   60.191	  	 
   12.50	    81.00	  16.770	   29.032	   49.988	   60.789	  	 
   13.00	    81.00	  17.246	   29.329	   50.708	   61.961	  	 
   13.50	    81.00	  17.500	   29.825	   50.187	   63.526	  	 
   14.00	    81.00	  17.610	   29.773	   51.281	   63.043	  	 
   14.50	    81.00	  17.236	   29.807	   50.668	   63.346	  	 
   15.00	    81.00	  17.825	   29.677	   51.570	   64.331	  	 
   15.50	    81.00	  17.931	   30.157	   52.063	   66.395	  	 
   16.00	    81.00	  18.693	   30.371	   53.007	   67.480	  	 
   16.50	    81.00	  18.604	   30.731	   52.376	   67.781	  	 
   17.00	    81.00	  19.966	   31.144	   52.202	   66.971	  	 
   17.50	    81.00	  20.803	   32.179	   52.629	   68.807	  	 
   18.00	    81.00	  24.274	   33.790	   55.174	   72.275	  	 
   18.50	    81.00	  24.328	   34.842	   57.377	   77.552	  	 
   19.00	    81.00	  25.372	   35.863	   59.321	   76.837	  	 
   19.50	    81.00	  24.524	   37.829	   60.000	   80.712	  	 
   20.00	    81.00	  25.033	   39.430	   63.740	   75.495	  	 
   20.50	    81.00	  24.094	   40.846	   64.237	   83.400	  	 
   21.00	    81.00	  26.294	   44.142	   69.325	   88.113	  	 
   21.50	    81.00	  26.519	   44.960	   71.791	   92.090	  	 
   22.00	    81.00	  27.034	   45.383	   72.882	   93.813	  	 
   22.50	    81.00	  23.142	   43.127	   69.996	   92.466	  	 
   23.00	    81.00	  23.319	   42.070	   68.674	   93.960	  	 
   23.50	    81.00	  24.905	   42.755	   71.007	   93.640	  	 
    0.00	    83.00	  24.697	   41.555	   68.652	   86.984	  	 
    0.50	    83.00	  25.405	   42.986	   67.691	   86.507	  	 
    1.00	    83.00	  25.405	   43.515	   66.336	   88.090	  	 
    1.50	    83.00	  26.995	   43.507	   65.815	   84.937	  	 
    2.00	    83.00	  25.904	   42.764	   65.905	   86.840	  	 
    2.50	    83.00	  24.654	   41.594	   63.842	   84.739	  	 
    3.00	    83.00	  23.107	   39.914	   64.183	   81.507	  	 
    3.50	    83.00	  21.705	   38.901	   62.271	   80.807	  	 
    4.00	    83.00	  22.002	   36.501	   60.427	   77.555	  	 
    4.50	    83.00	  21.904	   35.962	   59.208	   74.973	  	 
    5.00	    83.00	  21.283	   34.656	   57.723	   72.873	  	 
    5.50	    83.00	  20.347	   33.316	   55.667	   71.749	  	 
    6.00	    83.00	  20.319	   33.513	   56.284	   71.400	  	 
    6.50	    83.00	  19.102	   32.899	   54.973	   70.219	  	 
    7.00	    83.00	  20.171	   32.901	   54.985	   70.224	  	 
    7.50	    83.00	  20.892	   32.681	   54.039	   69.609	  	 
    8.00	    83.00	  20.581	   32.064	   53.635	   67.984	  	 
    8.50	    83.00	  19.414	   31.861	   52.384	   67.082	  	 
    9.00	    83.00	  19.313	   31.620	   52.096	   66.304	  	 
    9.50	    83.00	  18.719	   31.062	   50.995	   65.683	  	 
   10.00	    83.00	  19.051	   30.939	   51.037	   64.449	  	 
   10.50	    83.00	  18.210	   30.484	   50.096	   63.756	  	 
   11.00	    83.00	  18.051	   30.144	   49.880	   63.108	  	 
   11.50	    83.00	  17.909	   30.445	   50.287	   63.174	  	 
   12.00	    83.00	  18.246	   30.504	   51.150	   62.733	  	 
   12.50	    83.00	  18.219	   30.765	   51.166	   63.042	  	 
   13.00	    83.00	  18.727	   30.867	   51.614	   63.966	  	 
   13.50	    83.00	  19.106	   30.975	   50.911	   65.276	  	 
   14.00	    83.00	  19.427	   31.015	   51.741	   64.796	  	 
   14.50	    83.00	  18.921	   30.857	   51.515	   64.762	  	 
   15.00	    83.00	  19.944	   30.936	   52.263	   65.713	  	 
   15.50	    83.00	  19.977	   31.407	   52.544	   67.321	  	 
   16.00	    83.00	  21.051	   31.483	   53.729	   68.893	  	 
   16.50	    83.00	  20.929	   31.616	   52.748	   68.765	  	 
   17.00	    83.00	  22.566	   31.891	   52.205	   67.209	  	 
   17.50	    83.00	  25.105	   32.524	   52.081	   68.281	  	 
   18.00	    83.00	  28.258	   33.639	   53.906	   71.400	  	 
   18.50	    83.00	  26.726	   34.821	   56.295	   74.549	  	 
   19.00	    83.00	  26.961	   36.239	   58.394	   74.825	  	 
   19.50	    83.00	  25.510	   38.321	   58.114	   77.063	  	 
   20.00	    83.00	  28.956	   38.665	   60.759	   74.821	  	 
   20.50	    83.00	  27.043	   40.472	   62.079	   81.165	  	 
   21.00	    83.00	  28.257	   44.539	   65.528	   83.949	  	 
   21.50	    83.00	  26.684	   42.238	   68.402	   86.602	  	 
   22.00	    83.00	  26.762	   43.504	   68.595	   86.660	  	 
   22.50	    83.00	  24.442	   41.673	   67.338	   85.881	  	 
   23.00	    83.00	  24.706	   40.570	   66.361	   86.158	  	 
   23.50	    83.00	  24.915	   41.773	   67.258	   87.180	  	 
    0.00	    85.00	  25.733	   39.545	   65.953	   79.401	  	 
    0.50	    85.00	  26.450	   40.271	   64.547	   79.077	  	 
    1.00	    85.00	  26.229	   41.524	   64.433	   80.465	  	 
    1.50	    85.00	  27.381	   41.521	   63.040	   78.693	  	 
    2.00	    85.00	  26.900	   41.127	   64.058	   82.165	  	 
    2.50	    85.00	  24.838	   39.531	   61.349	   80.739	  	 
    3.00	    85.00	  23.640	   38.836	   61.896	   79.888	  	 
    3.50	    85.00	  22.441	   38.165	   60.439	   79.133	  	 
    4.00	    85.00	  21.085	   37.058	   59.080	   75.470	  	 
    4.50	    85.00	  21.530	   36.400	   57.471	   73.596	  	 
    5.00	    85.00	  21.083	   34.698	   56.709	   71.761	  	 
    5.50	    85.00	  20.734	   34.236	   55.735	   71.219	  	 
    6.00	    85.00	  21.642	   34.074	   55.840	   71.316	  	 
    6.50	    85.00	  20.994	   33.601	   55.112	   70.272	  	 
    7.00	    85.00	  20.931	   33.666	   54.839	   69.922	  	 
    7.50	    85.00	  21.717	   33.609	   54.097	   69.701	  	 
    8.00	    85.00	  21.708	   33.377	   54.785	   69.100	  	 
    8.50	    85.00	  20.675	   32.857	   53.306	   68.875	  	 
    9.00	    85.00	  20.221	   32.558	   52.856	   67.504	  	 
    9.50	    85.00	  19.792	   32.274	   51.333	   66.260	  	 
   10.00	    85.00	  20.091	   32.032	   51.500	   65.423	  	 
   10.50	    85.00	  19.094	   31.745	   50.704	   65.008	  	 
   11.00	    85.00	  18.673	   31.334	   50.526	   64.401	  	 
   11.50	    85.00	  18.725	   31.302	   50.796	   64.265	  	 
   12.00	    85.00	  19.178	   31.558	   51.494	   64.378	  	 
   12.50	    85.00	  19.348	   32.006	   51.757	   64.767	  	 
   13.00	    85.00	  20.236	   32.202	   52.309	   65.226	  	 
   13.50	    85.00	  20.593	   32.010	   51.713	   66.552	  	 
   14.00	    85.00	  21.139	   32.067	   52.116	   66.236	  	 
   14.50	    85.00	  20.841	   31.640	   52.011	   66.059	  	 
   15.00	    85.00	  21.870	   31.899	   52.756	   66.795	  	 
   15.50	    85.00	  22.591	   32.280	   52.772	   68.077	  	 
   16.00	    85.00	  23.827	   32.431	   54.004	   69.219	  	 
   16.50	    85.00	  24.618	   32.191	   52.494	   68.975	  	 
   17.00	    85.00	  25.685	   32.044	   52.442	   67.670	  	 
   17.50	    85.00	  28.926	   32.817	   51.680	   68.150	  	 
   18.00	    85.00	  31.941	   33.449	   52.966	   70.267	  	 
   18.50	    85.00	  31.578	   34.654	   55.338	   71.202	  	 
   19.00	    85.00	  29.606	   35.822	   57.666	   73.040	  	 
   19.50	    85.00	  29.110	   36.656	   56.347	   73.165	  	 
   20.00	    85.00	  30.194	   37.688	   58.449	   73.747	  	 
   20.50	    85.00	  27.958	   42.045	   61.623	   79.207	  	 
   21.00	    85.00	  28.545	   42.597	   62.860	   81.254	  	 
   21.50	    85.00	  27.312	   40.760	   65.271	   81.601	  	 
   22.00	    85.00	  28.619	   41.080	   65.974	   80.641	  	 
   22.50	    85.00	  25.321	   39.915	   65.821	   81.890	  	 
   23.00	    85.00	  26.647	   38.688	   64.707	   80.612	  	 
   23.50	    85.00	  26.270	   41.216	   65.862	   81.404	  	 
